# pn-170911/CsIIA-25-PTBB-1280-1959.psd
# Power spectrum* (dif=0,1,2) (really just |FT|^2)
# NOTE: only the first half! (symmetric)
# weeks: 1280-1959
# 4 clock-days, 0 excluded
# PSD: 1441
37967.4 0.890084 0.0366577
645406 17.503 0.0105706
3.84484e+06 97.0842 0.0167043
1.85959e+06 56.584 0.0133766
460145 38.514 0.00909339
803594 69.0492 0.0224792
252830 50.5274 0.0213628
232282 29.9761 0.0271448
34202.6 9.03464 0.0180143
172479 41.5528 0.0255659
246776 115.716 0.0662325
173636 96.8822 0.0517704
153283 100.683 0.075096
83923.7 55.195 0.0740207
39983 50.5945 0.0601302
73900.7 96.2322 0.119195
34816.8 42.8578 0.0486655
47747.7 88.3036 0.133196
29676.4 62.6582 0.104608
52130.5 72.1459 0.11435
19859.6 49.2029 0.0949897
39724.1 72.9969 0.196076
58774.3 100.111 0.239097
40322.6 71.1617 0.162913
23374.6 49.7699 0.125677
22501.6 60.4176 0.187388
8201.41 8.19815 0.0388173
16287 41.3295 0.125563
20936.9 65.7592 0.295476
14746.1 49.937 0.13573
18041.3 56.3646 0.248028
15238.7 65.3103 0.236302
24692.6 77.9084 0.373829
5462.57 29.4203 0.200384
13100.3 56.7243 0.36742
9572.57 59.7763 0.408756
6642.55 62.7239 0.44151
11297.9 52.6702 0.344557
9510.72 49.3392 0.263667
19124 106.558 0.784584
16980 100.732 0.833692
15778.9 144.315 1.30462
3177.05 37.9502 0.372662
9167.78 48.7227 0.522279
5801.9 33.0435 0.378465
4667.88 51.7485 0.456589
3230.16 25.3034 0.236879
3958.83 46.0615 0.513751
2356.97 46.5442 0.488028
5554.06 58.2388 0.682135
12260.1 114.883 1.40756
4332.09 62.3837 0.719796
1684.46 9.67865 0.106421
4239.66 70.6557 0.849311
9460.12 106.004 1.45444
4663.76 58.0687 0.930687
3055.9 26.7957 0.482596
5468.56 66.9536 1.03449
2133.32 49.2131 0.730152
7006.4 85.0812 1.61403
2891.2 57.4329 0.839769
4609.04 44.7142 0.746262
2038.22 33.8817 0.649707
3443.42 70.9287 1.30975
4165.49 56.331 1.15955
3669.36 71.71 1.54828
1918.84 32.2068 0.561952
3546.64 59.6663 1.23893
3126.48 79.8712 1.69615
3594.84 62.9989 1.47542
2512.89 66.1503 1.76043
1942.04 75.6594 1.73484
2287.57 33.2889 0.781036
4773.81 96.8443 2.55413
3165.82 54.5864 1.36926
3446.7 80.5541 2.09589
1658.84 39.8612 0.972033
872.337 27.7083 0.780392
876.841 26.7497 0.692793
3261.96 107.603 3.16862
172.209 5.92457 0.231053
1651.45 38.2182 1.2148
3333.03 63.436 2.1102
2177.23 53.269 1.84881
1175.14 20.9592 0.798197
2189.42 55.1854 2.17777
1773.66 44.3346 1.29835
801.365 33.3398 1.0659
1232.38 61.961 2.3833
840.951 28.4304 1.1469
2757.1 74.103 2.91364
441.632 22.3484 0.898118
1183.16 27.6177 1.04069
1415.82 71.458 3.17123
1415.07 30.7777 1.31411
1473.48 36.7466 1.46228
1143.94 66.7285 3.08331
2061.81 97.9129 4.49432
1336.8 70.039 3.1553
1014.9 35.3945 1.86846
1992.39 81.2124 3.42632
1838.62 74.1561 3.58966
1720.56 62.7089 2.9965
806.733 19.8238 0.930785
1557.46 66.0693 3.58213
115.715 10.4116 0.64235
1515.35 60.1887 3.36372
1618.11 64.5872 3.65988
905.524 48.8942 2.66975
753.286 51.4129 3.11837
847.801 55.5685 3.12232
1319.02 47.7396 2.41363
984.309 52.0571 3.08822
1288.27 56.1389 2.91427
1323.69 69.4866 4.01116
1325.29 72.0165 4.62185
973.029 49.3023 3.0969
1528.47 88.1872 5.6466
904.108 51.194 3.87222
1677.31 90.483 5.65911
1284.15 64.6119 4.58361
452.545 34.8725 2.612
902.197 51.5617 3.69972
1344.4 69.323 4.70922
1494.24 80.5411 6.65514
2662.42 156.827 11.1466
1115.63 77.3355 5.44839
284.342 20.2584 1.56871
1277.66 68.8774 5.98218
577.243 74.7635 5.47862
581.07 35.605 2.9253
463.254 30.6261 2.07458
529.805 47.654 3.97258
526.69 64.2971 5.44454
558.968 40.4356 3.3762
593.376 34.1247 3.3088
616.958 33.8344 3.05374
185.093 7.14997 0.539659
696.462 44.7136 3.90009
713.303 53.4325 4.78164
1517.38 94.8559 9.15163
602.002 51.1487 5.80044
545.075 46.9486 3.57812
442.665 57.9681 5.3869
176.487 16.1933 1.82441
368.109 28.973 2.82515
608.144 41.9027 4.59949
515.891 76.6698 7.87173
1269.78 81.9971 8.51547
394.615 41.4121 4.13618
348.27 21.5324 2.81619
238.636 47.7148 5.18433
703.714 41.0553 5.0057
864.8 83.6442 8.6139
786.895 93.512 10.7049
181.507 40.8274 4.69084
405.223 24.3623 2.89755
462.046 48.759 5.78847
620.047 95.6097 12.1313
1117.9 97.2985 11.6228
322.102 23.8108 2.46353
920.574 67.2412 7.45374
769.408 81.1767 9.47759
624.107 72.2366 10.1791
781.275 87.8719 10.3044
233.028 27.5515 2.63009
543.793 76.8442 10.1741
492.196 65.7328 7.78901
328.334 25.9302 3.39739
1197.37 136.833 17.8273
369.615 26.286 3.6318
229.59 23.9906 3.3384
675.217 72.3122 10.4606
539.481 74.3138 10.2401
244.013 41.0564 5.51072
612.604 65.9898 9.32416
675.916 86.3075 13.2333
483.632 68.4684 9.6026
682.337 119.295 17.7145
450.856 69.6216 11.5792
630.625 77.204 10.5196
560.035 47.339 7.57352
290.043 35.7041 5.6314
130.435 18.8721 2.61632
395.046 42.9112 7.77762
691.056 97.451 14.2494
609.59 85.6064 13.6262
248.712 30.5947 5.92154
156.297 21.9634 2.75712
387.811 80.822 13.6441
563.218 54.7541 9.27791
515.866 87.6218 17.4161
342.305 43.0071 7.40813
186.967 24.3842 3.45103
339.712 48.6837 9.25904
580.911 86.1321 14.7891
228.661 31.6058 5.41058
305.556 49.6481 8.49525
904.625 123.882 21.4757
201.676 43.9505 10.0109
339.677 33.7629 6.52593
441.242 83.915 16.0583
169.803 23.9677 3.81068
138.722 28.4914 5.35697
260.073 50.9177 11.3372
328.713 50.3081 8.79141
214.557 24.2563 4.81392
195.468 56.1718 11.751
309.937 54.0924 11.8038
297.138 86.1012 17.1113
422.799 61.8643 12.9513
348.094 75.4852 12.9139
253.935 92.4902 19.3211
175.244 39.5872 10.0589
483.908 57.4957 13.1063
193.591 38.4529 8.01863
641.23 97.6181 20.6901
311.455 55.566 11.9402
400.262 90.7908 18.2612
210.473 38.0365 10.7469
303.818 56.6908 12.7316
101.787 25.7245 5.69118
322.148 68.0942 14.9382
71.2265 30.4211 7.20757
100.35 19.0398 3.84053
293.848 49.7362 12.6618
106.39 22.7528 4.54457
136.676 16.1873 3.62027
98.7997 29.5357 8.15543
322.839 46.7482 10.6163
220.19 48.8545 11.3278
96.0017 20.2793 4.98564
309.087 76.3618 20.1424
147.785 27.3808 6.41192
14.0235 6.47329 2.55406
392.561 91.7698 22.5308
233.064 50.5363 12.3356
158.104 48.3315 12.6657
277.249 47.0268 11.996
250.698 87.0616 23.3167
209.806 37.0246 11.0515
49.3678 18.8646 4.48547
343.723 68.4845 19.3751
199.063 75.3732 19.7744
81.6492 28.6878 8.86415
91.658 21.7612 6.14472
263.104 78.2129 24.1294
157.92 21.4036 4.62643
244.689 54.1397 16.0109
199.793 31.6381 8.87138
105.044 31.5233 7.61274
124.62 35.6076 12.1571
256.749 72.5015 20.3258
151.763 45.6356 13.0407
140.722 28.9993 7.99176
77.8327 38.9117 12.9242
203.031 35.2157 10.7618
203.505 57.5325 18.9684
201.13 42.654 10.8909
154.582 55.2074 18.5393
154.557 35.9053 10.029
41.9345 21.9478 8.36161
244.103 40.1369 12.9399
268.345 57.8813 17.263
105.698 19.5552 5.19141
188.177 41.618 15.1452
131.202 46.3378 12.5253
139.937 52.4236 19.7167
85.1338 20.358 5.9487
113.284 30.9122 9.82851
226.628 62.7165 20.1624
95.0426 28.137 11.483
261.592 56.7927 19.3381
167.68 33.3895 13.2863
140.303 51.9176 15.7924
70.1807 16.6166 5.55911
363.24 95.5976 29.2871
167.945 74.2343 26.6208
160.235 63.0707 23.8868
130.196 30.4576 10.2221
251.324 75.4799 26.9339
85.9608 34.8358 14.2272
78.8608 28.2001 9.1472
146.591 47.4143 17.3275
116.981 44.2345 14.7296
139.629 44.2192 17.1359
165.994 60.2679 20.2024
168.934 64.1576 23.1828
189.995 60.6161 20.5982
148.455 74.8763 28.3875
351.228 169.627 72.4546
270.221 82.5462 29.577
131.986 57.653 25.2396
110.088 19.7541 8.85666
139.889 33.4414 14.1358
42.9058 27.416 10.2991
95.8113 20.1528 8.27002
29.072 14.1736 7.6208
135.929 54.1013 22.5167
152.592 45.6389 20.925
70.3553 62.785 31.1316
361.75 93.8809 36.7571
98.4157 36.7529 16.3045
163.319 42.5042 12.8599
160.79 50.064 19.0604
120.425 31.2073 15.9616
119.315 32.1064 16.2178
171.232 81.1656 31.7589
64.9253 26.0375 12.0543
82.2285 19.2111 8.65098
151.887 46.3306 19.093
91.1003 39.7803 21.6937
151.265 92.8953 39.4236
97.8215 13.1393 5.2424
87.8339 36.2643 18.3281
124.52 31.8287 13.7626
140.977 43.3227 21.5486
239.512 78.026 32.4133
104.159 17.9431 6.94268
121.575 34.3936 14.5347
118.796 25.726 13.1862
85.5877 31.5777 15.6268
121.545 33.8112 19.5008
112.292 44.8429 22.3572
160.145 56.3891 25.9955
79.5801 32.9308 13.1023
44.6839 29.7961 14.4616
162.773 49.4213 24.8634
75.2783 35.3569 18.0723
72.625 26.8303 15.0103
50.381 44.8336 21.0233
139.411 34.7836 11.76
112.8 48.6751 25.2121
159.021 73.8246 46.7098
122.655 36.5131 13.0957
93.9538 60.1926 27.7632
76.4612 22.9608 13.0542
65.4187 68.856 38.1996
172.851 47.2505 20.3964
122.832 64.7994 31.8762
33.7847 12.1945 8.1466
73.5061 23.1862 10.4283
89.7229 24.1557 15.3818
61.889 38.4712 20.9653
56.5965 32.2504 14.5799
59.9372 24.9244 14.0584
55.06 40.134 28.2439
94.9675 33.7485 16.7118
51.9879 29.3649 20.4468
241.633 85.3431 43.8804
71.1175 52.9631 28.532
109.818 38.3174 16.4648
111.396 34.34 17.3183
88.8811 33.9996 16.3831
94.7617 40.9642 29.1462
183.617 70.4919 35.2911
32.8036 30.0039 19.0147
189.037 70.7571 45.4587
115.782 58.0273 31.9408
191.341 91.5901 51.2866
226.908 99.1043 53.0772
114.12 54.9574 36.2386
129.64 79.3304 46.2261
97.2143 42.5171 26.0395
40.5798 10.1824 7.24825
132.138 53.0323 36.1059
48.4922 37.8414 20.2245
71.4683 30.1706 19.4457
113.282 39.8033 21.6641
133.762 72.6439 41.4209
46.5379 23.8697 23.8626
28.183 9.81929 6.06175
83.7356 57.0004 37.6156
60.578 54.079 34.4832
72.857 27.2057 20.3177
37.4 30.1277 19.0728
92.365 42.7449 23.7346
58.9117 27.8305 22.1429
49.7236 19.1356 11.204
44.8477 32.0272 26.1464
151.036 57.5723 35.6747
87.6069 40.2629 29.9076
80.5786 46.649 27.4842
26.5276 14.3998 11.157
38.9266 17.4988 13.5147
80.6593 38.8336 22.3189
125.805 78.3904 49.4616
41.2228 29.9047 25.0806
45.9277 34.723 28.7905
45.4519 48.8432 29.1367
49.2056 34.654 22.812
43.2515 43.4115 36.2683
77.3625 25.0142 11.2541
57.1559 41.8671 25.3714
47.6356 40.7444 27.2108
53.3137 26.3168 23.6779
41.6733 20.9666 15.5014
69.9057 43.5947 22.4808
39.6613 27.9374 25.3263
28.2644 14.4054 13.501
49.9716 20.4774 13.963
42.9587 34.3658 25.3341
77.7704 46.4303 35.9586
82.5435 39.6852 26.1408
70.2831 52.3677 34.5271
52.3074 38.4511 30.2027
19.7531 16.8531 15.8865
111.396 92.4616 61.3286
47.6843 16.9171 11.8054
33.7631 58.2475 47.7496
81.2076 30.6245 23.6209
65.1024 35.0139 22.5944
59.3523 28.5899 17.639
44.7999 37.8224 26.041
81.8702 59.8352 51.7949
53.081 33.7352 27.137
51.4216 22.1596 24.3658
72.2878 70.3972 45.1538
57.2136 20.6726 11.8368
60.8263 39.37 32.09
42.3814 25.4984 17.278
37.702 21.5316 17.6031
53.6327 25.089 13.2728
57.7925 55.0483 47.7194
56.0007 15.4978 7.4458
33.6741 12.2469 11.2231
33.4378 27.9436 23.2204
16.7954 16.1722 20.5606
86.3583 54.3862 35.1744
75.5822 50.7604 45.8929
57.5454 20.6143 14.3766
58.2359 37.4401 30.4518
80.5911 30.7701 27.0683
87.6785 62.4963 49.3845
15.8803 8.53096 6.99769
16.3468 19.3903 17.5988
33.0083 29.5956 25.2629
56.6365 39.3205 35.2483
30.5679 16.976 15.3826
38.8077 18.3774 14.4824
25.5785 12.0168 7.39585
57.275 37.5922 30.5097
49.4065 69.0664 59.9186
34.0313 34.3797 45.0139
127.077 60.6058 43.7849
33.1119 10.0553 3.72847
55.3812 37.6561 34.0564
27.1641 10.8876 14.5774
24.9232 8.53118 10.7568
37.4783 39.7558 35.0164
25.3548 36.7986 30.8562
11.4708 9.48859 8.41298
56.709 52.9952 47.7016
44.0064 41.361 40.1688
61.3609 21.9092 23.4368
42.9204 53.6581 53.8864
59.1628 21.2164 17.7774
55.3355 28.5238 15.2315
38.0133 35.8501 34.5432
32.4934 19.7717 24.4706
53.7777 13.31 12.045
69.6469 33.4401 17.4152
64.9698 66.5935 76.9471
70.7008 50.6842 37.6929
50.9912 38.4587 31.5382
29.3712 24.0482 23.9867
41.2553 30.7994 25.2136
16.608 20.7582 20.9745
25.15 36.3501 40.971
52.8971 23.2185 18.9023
33.709 19.5302 20.6167
45.8833 25.246 24.3139
48.4668 34.5117 35.4826
59.9923 32.3939 23.3628
17.1577 18.6502 21.2676
84.8378 44.5702 41.535
40.6964 38.2304 41.9666
15.7865 24.7553 28.4505
48.1341 41.9026 40.0705
28.3724 24.6856 23.9308
67.116 71.5413 71.1771
60.7643 38.0414 40.7381
37.4716 18.8168 12.5933
18.7492 12.5927 14.9838
41.9938 22.4034 20.3089
35.9916 23.2372 17.1291
24.5431 20.5244 28.4492
82.0302 73.9836 76.6676
26.3017 47.2718 63.1655
58.5792 21.5833 12.9077
57.3518 72.5551 84.3995
74.1474 51.0709 37.7248
15.4256 24.3946 27.3799
53.376 26.5479 18.745
37.9662 33.1721 36.0127
36.2572 42.1239 55.4398
28.6454 14.7664 14.0826
30.0743 30.0091 30.1413
36.3068 30.9721 31.7729
58.1356 38.3723 42.6671
48.2247 26.7908 26.3778
21.5412 6.82192 6.12252
55.8056 42.3542 45.4368
39.3494 43.5715 40.2876
51.8327 48.6727 58.364
27.675 26.5852 30.8505
26.0363 7.67483 6.08638
9.19195 9.87926 16.0599
50.1816 40.1468 44.7949
29.882 18.4331 20.3311
55.1666 34.4102 35.72
26.706 18.4925 14.5291
37.3542 39.6891 57.2443
32.6137 20.7879 19.8195
18.4904 15.0908 27.1837
22.7763 41.7705 36.9529
17.5604 16.6894 32.0859
54.9392 37.6539 27.5893
28.1946 14.6455 20.5515
44.1613 32.2698 32.1449
32.1385 39.435 50.9894
22.8819 21.5749 30.3223
29.7617 17.2872 16.0775
23.5994 19.0065 33.1592
38.976 33.6664 25.3223
30.8562 39.8117 40.6241
27.6745 21.2911 21.6712
22.999 17.925 27.5733
4.13322 24.5932 32.1195
38.6651 19.8782 26.5423
26.7909 36.2424 38.6477
22.2481 29.7231 33.1325
23.9803 43.6036 50.0758
30.5197 17.0689 23.0987
18.4923 13.8909 15.6623
33.6417 52.6429 77.4792
64.2257 49.2221 61.2137
37.2519 31.3523 37.4085
38.1813 27.8453 27.1423
11.3536 7.54769 14.1677
24.2354 15.1439 30.3869
53.5529 52.8436 52.8212
8.09179 13.6518 15.8103
8.12652 21.6741 21.3281
12.6522 15.4669 22.7237
14.9234 13.8167 15.1674
15.4075 24.9734 44.4449
60.4259 57.288 49.2931
28.6642 30.6343 44.3294
11.735 18.9701 17.2658
8.57577 13.3779 18.0223
12.6835 20.7888 35.6176
15.269 17.0971 20.2305
23.16 27.2663 48.5102
23.7719 15.6815 13.3672
41.8671 68.9979 84.7577
23.8753 33.2789 50.7305
37.0231 17.8444 22.2894
21.3027 7.70513 9.56932
26.209 12.1754 11.5443
4.19252 13.0821 24.6919
25.2852 16.9912 35.2566
36.4563 39.633 50.9374
17.8084 18.2124 40.226
93.9579 93.8788 87.4942
28.9371 32.6419 45.1507
31.6255 23.2171 38.875
56.0407 41.502 36.1057
31.3298 31.7322 50.6607
22.0572 19.6967 27.6831
35.0363 43.1013 51.8473
19.8837 22.1523 30.081
18.4673 19.601 34.0115
19.2129 33.3821 38.7192
21.5687 10.8422 19.3263
34.5335 40.4795 48.5097
10.7725 18.4079 22.8634
24.3775 21.7483 44.301
33.3033 17.8376 25.2439
16.783 19.4787 25.0035
15.5734 20.2683 33.0776
11.5051 13.6258 13.2433
26.1889 19.4225 26.1239
28.9364 46.8138 75.7641
9.44539 7.5183 27.2543
23.9813 25.2544 33.7825
39.2591 40.8382 49.7852
7.6067 14.3639 15.5907
20.3583 42.7931 61.9471
16.4678 10.5687 13.9185
19.3702 23.805 25.0844
17.6919 26.4425 49.4768
28.059 32.7109 36.6982
25.2786 25.1304 31.946
8.7816 2.52453 5.90137
22.858 26.7484 37.3097
5.94456 4.6799 16.7701
17.6136 21.268 29.2129
26.8949 16.464 25.4502
8.37265 10.9229 10.5539
6.55411 19.4286 19.6623
9.68751 10.3422 12.9914
5.56374 3.08049 8.33126
15.4807 18.8362 30.9484
22.8872 23.7476 34.6671
29.2443 33.769 51.2174
27.5841 32.8532 36.4632
15.4269 16.9815 30.2295
12.3595 25.2757 46.5729
15.5955 14.8928 31.2533
23.9384 19.5484 19.3043
11.8835 26.0855 46.7826
21.4071 17.8798 20.3391
20.5192 15.5272 23.1888
12.6783 18.1749 28.6531
13.3709 14.1828 17.8722
7.19538 6.18234 12.7623
9.93796 13.5504 28.4433
16.2237 17.3161 18.5943
20.4387 33.9839 74.7968
20.5128 22.3526 27.8878
31.4781 25.4354 29.1767
12.8027 10.9934 18.7807
13.1377 29.9917 47.0971
19.8163 11.6193 18.5915
8.93141 8.98827 11.3041
6.26783 14.7165 26.295
13.8991 11.7578 23.5771
20.7345 16.8445 24.9763
8.66424 25.486 42.1255
22.5605 17.8391 24.3573
11.2524 9.43192 22.3732
19.1823 9.68782 26.3881
25.9183 32.5447 43.2615
5.7979 7.30451 17.2761
10.5744 2.17883 9.25179
23.9096 23.0254 39.6742
17.0104 10.5551 17.55
17.2418 14.2384 17.2995
13.3008 17.2716 30.0776
25.1395 30.8888 37.5461
20.4768 33.5588 43.2409
3.41042 23.1758 59.522
42.1245 34.8005 58.3813
37.8932 55.5722 89.046
37.1684 51.0854 70.5419
19.9809 22.0746 49.3295
25.2266 25.622 40.4702
11.2544 7.51616 19.194
14.3447 5.71649 12.6176
30.0133 22.0163 31.3166
7.48277 15.0734 37.3732
13.6359 7.986 13.7013
12.1052 12.7581 25.9882
29.651 35.0593 26.0654
10.696 26.1082 38.4352
13.8106 19.906 38.53
12.3136 15.8627 30.6225
13.0661 14.4661 43.9369
18.8749 13.3426 20.0302
21.0998 8.37657 9.86922
14.4749 24.0214 38.1537
16.8484 6.70726 11.529
22.9906 22.1641 33.7508
8.05226 12.2063 27.4348
15.0849 13.1282 22.9433
8.85405 24.9067 39.039
13.3683 14.7514 52.7063
25.4321 17.6335 19.2047
6.49629 6.00556 20.1035
25.3968 24.8855 35.5359
18.7285 37.7556 75.1969
10.2287 6.58488 29.5303
26.1936 28.6122 30.7781
10.2419 10.8951 35.6506
15.193 22.2481 33.5602
13.7805 20.7696 27.5532
10.3413 7.63174 14.5754
7.52806 6.826 5.72332
3.56736 14.3691 32.0401
28.0612 25.94 39.5625
9.63728 14.333 22.9578
5.95407 10.8698 22.6599
17.2059 19.0365 35.8157
11.2695 25.7388 55.3987
14.5053 18.0748 50.659
21.7794 30.0304 48.7071
11.9098 21.7231 32.3909
13.3518 9.23652 17.512
11.2732 10.8703 30.9529
23.5343 13.4507 13.0542
11.6726 17.1625 34.5165
21.028 19.4062 43.8078
24.7125 18.9895 21.7515
9.44052 26.114 38.5735
11.2142 15.2319 29.9569
9.63155 4.694 18.5674
10.7797 11.9962 18.0385
13.6762 10.6555 22.5321
16.0881 17.278 35.8716
11.3576 12.857 23.4989
13.7133 29.8723 56.1767
12.0136 16.0625 19.4935
11.4073 8.56807 13.7324
12.7837 18.6841 40.6657
11.0974 7.12378 14.0002
7.38881 11.2174 20.4821
5.32564 5.73166 13.3108
4.12273 4.29983 15.7212
8.93427 10.4201 27.0865
15.8574 20.785 50.7409
10.5822 26.0007 54.5098
8.87447 22.8532 48.4851
23.7797 23.2283 30.9048
17.0544 32.2711 51.2855
15.9712 28.1781 57.5299
12.6227 8.22587 18.4266
11.1155 17.5964 25.6617
10.1243 11.8059 41.3287
16.9933 17.4414 23.0207
9.48256 6.65207 21.1701
10.478 17.9194 36.8616
16.6558 12.1411 18.0696
8.91456 11.4923 32.9369
9.30089 14.0486 25.5687
6.62504 18.7264 46.8395
14.2184 23.0374 38.7317
17.438 21.3265 35.4035
16.9966 17.055 32.4529
10.5307 5.63459 9.6158
6.82424 26.8576 69.0869
19.589 18.2641 38.6719
13.7861 22.8274 49.8556
23.7187 21.4903 37.9332
12.3228 15.0728 20.1355
10.1466 15.4488 31.6932
14.4063 28.0546 65.8455
15.411 16.3567 32.6428
9.52207 4.33375 13.3779
14.5522 20.6185 30.911
7.4152 23.2511 56.2701
9.70569 7.22341 13.9965
11.9027 13.1365 35.7256
12.0684 9.75123 26.5013
23.2731 23.8786 33.9372
7.88265 19.3614 46.3531
8.73584 12.8775 53.1496
35.3631 29.264 47.7015
22.8836 19.0946 22.4374
6.31604 12.1677 30.2539
12.4184 8.42967 29.2938
10.0452 7.50309 17.8617
20.2971 24.8966 43.5432
13.982 15.172 37.3129
9.97041 14.6093 32.2727
10.3206 27.3121 49.0229
18.9757 23.8778 38.3728
15.8539 24.151 68.1008
14.1966 18.8266 31.9489
9.37197 11.3084 32.4924
12.0104 29.5081 67.5167
7.01634 9.90412 30.3177
12.0683 15.3046 39.7628
19.6638 18.6727 39.4506
9.95564 13.3197 18.355
8.00402 14.7263 22.0137
10.2257 14.0787 29.832
10.4829 10.7929 18.8104
6.79458 2.34485 9.89476
7.99934 9.34412 15.805
4.90105 8.59429 23.578
6.31085 17.4045 50.3926
20.632 14.3236 23.7462
5.7541 7.57735 18.666
7.85547 11.1353 28.2902
14.2283 10.0287 23.7159
12.0873 23.8008 50.565
7.05872 8.50878 11.2823
7.54082 4.10995 12.2548
8.41316 19.0994 48.5401
7.11942 9.51439 19.5716
12.5572 13.732 25.2212
2.99833 9.40329 32.3167
6.07522 8.50839 18.3572
7.35216 13.1522 24.6464
8.00847 10.0519 19.0944
9.53003 20.2726 40.8512
6.29799 7.70297 13.4666
10.8297 13.5403 43.163
13.2993 12.7111 23.8328
8.17094 25.6495 67.8108
12.873 19.0998 45.2976
8.94331 17.3187 21.1113
3.11398 4.80624 22.8834
10.9677 9.00161 21.1353
9.97198 10.6129 30.8715
11.1951 10.1477 35.5861
19.1872 18.9057 32.5071
14.5689 17.7859 32.962
11.8398 9.65855 17.7977
10.1771 8.7073 33.1939
18.9468 41.8316 72.8976
8.66687 15.8509 47.9539
9.84413 15.5988 27.0974
10.0026 18.9826 49.8444
13.0393 13.5254 42.1021
10.4521 23.6776 54.4176
10.329 4.51997 11.8138
11.6311 12.9221 41.569
8.56109 18.5279 37.6855
10.2407 17.8374 51.5313
14.0917 6.33712 14.3846
17.6754 27.3844 66.4277
3.19899 5.5158 14.9302
9.25567 10.8561 24.3388
9.28595 18.0209 40.8305
6.45067 15.2579 53.9147
21.1543 43.2336 104.048
12.8577 8.00925 14.7154
12.8514 18.6821 45.5237
7.33926 8.3009 17.0828
2.8049 6.29067 12.9465
7.36544 7.40699 18.1527
7.73595 17.4433 34.076
6.64355 6.51536 29.4323
11.1518 19.4459 25.6656
6.47893 5.44583 17.3076
10.306 10.481 24.4229
11.4051 9.73891 25.8527
9.33675 15.4274 57.8134
4.13959 11.9911 26.9641
13.4272 29.7494 59.9598
11.8866 7.04145 16.6527
8.27538 25.6985 60.7384
15.0986 8.34868 27.2309
16.5055 31.999 80.7456
6.66629 23.3951 67.3757
11.019 13.0064 35.5399
4.66559 11.4761 22.4167
8.81323 3.20585 10.0249
5.85125 12.0193 28.3331
7.71381 9.65693 22.6664
5.60982 6.31588 24.5407
9.67022 7.09813 14.7407
14.6832 27.0415 76.2835
16.158 27.0284 59.5194
5.91763 14.4016 26.8418
7.62593 14.1032 22.1641
7.53253 4.07918 17.7511
11.6333 15.9553 43.9667
8.10657 21.3788 28.9231
4.00592 21.4003 51.3917
9.78589 6.91926 22.516
11.8233 12.4694 32.5294
5.17751 5.71043 19.8044
7.77406 23.3545 74.7968
12.1754 7.64515 34.4519
19.9556 21.977 28.094
4.95376 10.0174 18.2454
4.97866 10.0844 30.036
8.33405 7.87084 13.8324
6.8841 16.8239 48.0276
6.92072 7.50235 17.0767
3.69309 13.2655 29.2534
5.08602 11.4803 43.133
11.2412 11.4747 33.1262
11.2696 29.6482 79.173
7.207 7.97932 18.7239
9.00658 9.88472 21.7946
3.60019 5.96761 23.7539
5.84302 6.01339 18.0825
4.55643 4.80313 16.1506
6.35616 11.2388 49.8515
15.3913 8.52952 13.313
6.14503 4.88642 13.7412
3.47215 6.94047 15.6257
6.52491 6.79307 18.4387
7.14911 16.6296 51.1561
9.31059 4.69174 10.4194
8.86909 10.2493 23.6408
9.67288 10.084 22.3113
7.19649 11.4061 31.9295
9.83015 8.01552 17.8139
4.63079 3.35007 19.3015
7.37432 8.38356 13.2147
9.89456 20.9355 42.0961
6.11427 9.68242 46.4528
12.211 13.9722 14.5263
2.73827 11.6382 60.0914
13.8311 10.8607 16.6292
9.98121 7.75011 20.6012
9.04247 18.257 52.4758
15.5516 19.7737 42.1141
2.69635 6.4039 23.1924
7.37191 16.9062 45.6267
5.42317 10.8254 32.3805
8.49206 16.2352 31.7135
4.33643 3.08799 7.31509
4.17927 11.2083 51.9712
14.0595 12.6131 27.3717
9.66502 8.61667 45.5852
19.919 29.0402 47.4905
4.14881 11.8381 35.3924
5.90503 7.5102 19.467
7.51596 3.49949 12.7461
7.27162 7.64678 20.2853
6.41269 12.6482 24.58
4.87513 4.04101 19.4367
4.66622 4.81034 21.4654
5.59343 8.91917 29.6176
5.73793 8.17868 20.843
7.35804 11.3086 41.4526
4.03077 13.8539 30.989
7.65459 23.202 50.2967
5.88965 6.34573 25.0168
8.21194 11.228 21.0901
5.41854 7.60446 22.788
5.51085 3.58548 24.0989
8.90137 12.0386 38.3789
3.49736 7.56689 32.098
8.66295 7.24722 12.1535
5.50342 15.7183 54.6588
12.0709 18.3306 35.0996
2.74654 1.81672 12.7193
3.23394 9.11557 23.9465
7.72426 7.53557 41.749
5.86619 15.6125 20.9596
3.27183 8.50059 33.5897
5.45726 18.8708 52.9407
14.479 14.505 37.8138
5.11958 6.50404 33.1985
3.09298 16.8813 29.4598
7.40892 2.34502 10.3948
3.66212 5.83716 26.5755
9.26842 15.2324 31.821
10.6648 13.3649 57.369
9.05283 13.7667 12.2033
2.39524 12.4785 36.4274
8.53568 9.57253 24.3436
4.31696 10.5727 29.9733
5.63599 5.88745 27.1535
9.18917 12.8938 65.093
15.1745 17.3851 32.4573
6.85916 6.62484 18.4854
9.22558 13.5746 37.808
2.12169 9.04325 10.621
6.14292 11.4816 26.9849
4.96226 4.49764 28.0217
11.896 13.324 38.5753
4.86683 8.23817 18.8123
5.42992 2.47706 7.77997
3.14113 4.10413 12.4515
3.29361 11.0803 51.8521
10.4478 7.26936 6.88139
6.99863 5.97129 15.9546
9.57004 13.8161 44.43
6.49698 5.93029 18.586
4.46371 6.8689 10.1902
4.38544 5.20336 25.4954
8.01208 8.33815 30.1731
5.48345 13.6202 43.9893
8.56541 14.2923 29.5773
3.21101 5.65914 21.5098
5.95179 13.2064 33.1358
2.50244 2.13321 12.4182
2.33333 11.1464 50.0648
6.11585 11.0922 17.5392
3.31142 7.79518 12.1819
4.73405 13.7034 28.2232
4.06191 9.25499 44.9998
6.52968 4.4395 36.468
7.69153 15.6606 56.1465
13.5398 11.341 66.3904
16.738 38.8646 61.9023
5.75281 8.48369 46.9358
11.5214 4.74733 34.1029
13.5419 24.8138 54.592
6.44081 7.06042 25.5646
8.73245 12.7924 16.8352
5.56081 16.1047 60.4933
6.93495 10.5913 33.1002
7.24947 10.0588 21.8105
6.62429 8.13265 26.2618
8.99343 10.755 26.6627
2.39893 4.71713 26.6275
3.35534 7.77657 24.6666
4.68693 8.69254 27.3396
8.62866 12.5599 23.3347
7.1737 11.47 30.7602
2.36493 5.01717 15.7927
7.44271 7.07356 18.17
3.72728 3.19241 12.2453
4.78239 4.04431 22.4767
3.62085 10.008 34.6971
5.34094 12.0515 32.8702
5.50143 6.99288 42.0787
4.25696 14.2584 29.5994
3.55038 5.45021 34.7577
7.99097 3.94992 10.5636
3.48954 3.8602 12.5591
7.00931 10.1922 29.5914
6.09703 17.5236 38.2461
5.00478 10.0308 31.348
5.95508 4.70915 15.1317
6.51792 5.46914 21.0109
5.75181 3.86989 3.29986
7.40059 14.4738 39.249
3.80959 8.57891 34.1014
4.77258 7.07728 30.6536
2.26967 18.4908 47.6155
4.7842 9.30559 25.7849
5.42604 1.90984 24.9976
6.5524 15.8439 57.5766
6.10555 15.4095 25.5753
6.13553 7.81245 34.8137
5.02001 14.7882 44.7933
10.1809 4.7997 24.8224
7.08723 12.3703 26.1768
3.7312 7.45459 29.7351
2.14906 8.8184 41.5837
7.38897 6.74799 8.66919
3.11315 7.17038 24.1994
4.78257 5.60167 12.9528
5.25223 7.81858 16.113
3.80851 0.944327 6.44366
5.87807 7.12097 29.4382
6.77267 5.04359 22.1105
5.73409 10.088 20.9123
3.8137 2.38561 5.47762
4.1552 4.66486 30.3657
4.04637 6.91545 30.1153
3.98596 12.0996 13.3414
4.15008 3.44928 24.3019
4.93984 10.7484 32.9459
2.92006 22.1475 69.9721
8.12505 10.8749 63.8528
12.4629 16.5584 40.2021
8.84198 15.9496 55.228
8.07275 6.89521 10.8975
4.42994 10.8368 47.6061
11.6329 11.8332 36.2199
3.18807 12.4087 28.9785
5.46501 3.14632 14.5239
3.38416 7.06661 30.0854
5.66675 10.1962 21.1669
3.15651 6.5974 40.4873
10.5717 8.99444 30.547
11.1616 21.0906 44.6308
2.18927 11.1007 26.8653
5.34416 4.75811 12.7832
3.73201 3.99183 19.8248
2.58581 5.60598 19.2993
3.25505 6.19834 20.9141
5.07441 15.5397 52.7884
6.49634 7.85241 30.9522
7.26431 2.68445 4.09392
5.1853 6.09497 18.4662
4.23278 3.3884 9.44965
4.3525 4.54446 23.0312
5.73987 9.22392 28.8264
5.57305 7.78671 31.7591
2.21991 8.23536 48.8919
6.18723 7.53663 15.7781
3.10871 1.54007 8.4933
2.55014 12.3356 57.334
6.01111 9.19955 21.7539
4.53469 7.24363 19.7211
3.66017 7.84157 15.7786
4.07437 6.95087 38.8819
7.81965 5.01351 20.2438
4.45161 10.4617 27.9215
4.07231 3.45074 29.2227
8.77714 15.5456 37.3134
5.0881 7.66612 27.0571
2.85312 2.67075 15.6175
3.32488 4.86113 21.634
5.21721 15.9941 37.8403
5.69328 13.0991 91.082
15.1512 20.85 51.1591
8.86931 11.7081 14.885
2.8527 9.66745 36.9745
6.96818 13.198 22.3558
2.84295 10.7361 33.2802
6.62236 16.1411 36.7578
5.84639 5.62916 24.3952
2.1394 3.26459 30.8122
7.46348 13.643 50.5594
8.93867 8.27502 12.4154
4.69683 3.57216 19.4376
3.93051 5.43256 29.9018
5.98991 15.7792 47.0565
10.5876 15.9694 38.6561
7.81402 8.55122 25.2983
5.24834 12.0844 46.2684
1.45906 2.86284 21.096
5.16141 11.3878 29.0264
4.2783 11.2535 28.1189
4.90355 13.6622 71.4244
4.10531 8.03916 35.5184
6.22062 10.2286 18.5099
2.71599 8.34087 38.0953
7.42032 3.56276 17.6297
7.63077 6.70553 21.6028
2.56758 6.45507 28.6759
4.07157 8.4834 25.9922
7.37481 7.12635 27.5802
7.34075 8.52769 31.1318
7.05361 5.8929 2.9606
4.94342 17.014 80.6147
8.62043 7.11326 10.3289
2.35605 3.43721 31.5557
7.92774 17.1769 35.6758
5.39489 2.52973 31.3105
6.82114 12.146 26.8943
5.2789 8.31238 24.7652
3.72565 3.15316 10.7627
5.92765 10.3984 45.4045
4.3126 6.53244 20.3054
3.51369 9.32905 38.7267
4.78307 11.9227 33.9954
7.02092 7.51129 29.5704
3.74332 5.79571 15.3207
5.09969 5.12543 14.7426
2.59935 5.96434 29.33
5.31277 7.50806 19.2157
4.77441 3.76473 30.0866
7.89266 12.4691 40.0934
5.36202 4.00452 8.22746
5.55606 8.11323 21.6344
2.58469 7.28719 11.8561
3.64046 10.0211 27.6172
2.7956 13.9868 51.7786
6.66789 14.5715 69.3618
4.81484 4.59414 36.9025
6.23547 7.93113 29.6218
2.00237 4.99714 8.46059
4.7979 4.96914 22.4321
3.1673 3.87369 5.01262
3.70671 3.67124 14.036
5.25655 5.46181 20.8259
3.83293 4.57821 21.0253
6.88734 8.33259 18.0186
3.61715 3.93317 22.7152
0.551236 4.50775 12.3531
4.62649 8.5775 14.9236
4.34778 14.1005 59.4076
4.88871 5.25731 40.1952
7.8054 11.9863 38.7738
7.65228 11.1776 36.025
3.55144 8.8558 21.9754
4.16825 12.1471 41.6554
6.48689 12.4516 66.1085
5.08761 4.75716 8.30918
3.95665 6.9167 17.2242
2.56578 5.89085 16.0727
3.90874 13.8036 38.0949
6.58672 2.01463 14.1027
4.89935 6.71172 19.9091
3.28669 4.13484 21.7525
3.93837 6.26431 28.7905
7.19743 11.4162 27.479
2.5556 3.619 32.3782
2.39389 15.4813 50.8874
7.23081 7.8872 15.0983
3.78562 1.48161 22.9499
5.95391 6.44508 23.8277
5.95574 16.3997 34.3038
4.79607 3.16305 21.3753
2.53648 3.28749 15.7342
2.95718 4.60481 13.0678
3.73343 1.17143 4.65568
5.06669 5.34895 18.1838
2.94298 9.34486 28.7233
3.70299 6.44498 42.118
5.64041 4.01281 12.7403
1.42104 3.88338 13.1188
3.59867 4.14199 16.1066
3.9382 6.5497 14.0001
3.54467 5.63829 42.1885
6.29356 6.188 7.30147
3.0426 5.83043 41.2813
7.27617 9.82583 37.1672
5.04728 10.4566 28.3165
1.51171 4.89493 10.2281
5.1265 6.8693 42.0897
3.04634 9.45305 7.25141
2.46964 14.1197 44.5212
6.64047 3.99473 34.4919
7.68143 4.62307 23.0582
4.39874 5.26871 23.3234
6.04872 5.94802 16.9536
3.9885 2.97117 18.1081
3.69754 4.53939 9.9778
4.05135 5.01504 28.8191
7.53979 16.1211 41.6322
4.20456 8.41067 40.5263
4.19533 7.52864 31.6916
6.85916 5.33772 11.4741
3.10174 5.8523 24.3818
7.80516 8.14274 17.3325
2.45153 7.42338 27.8825
4.42469 4.55695 23.6023
5.3274 9.82833 23.0702
4.18428 3.29344 21.7272
4.68522 7.99551 18.8848
4.30036 2.41163 19.5798
5.7481 14.2438 69.4261
6.28984 12.0452 20.3032
1.58049 7.51612 21.6736
4.39097 4.87971 21.8225
2.45909 4.4196 12.1037
4.51391 2.34214 15.3913
5.95069 10.9435 59.5691
6.99017 16.357 34.5683
3.0161 8.68575 31.2302
3.99908 12.0841 24.2882
4.07736 5.02283 28.0729
3.00679 7.6866 39.3403
3.61799 5.09062 24.0725
4.39681 2.00002 9.31908
5.07768 6.91891 33.0167
1.94795 5.57927 7.6076
2.07234 6.67134 31.8431
4.79104 4.97128 9.16761
3.32188 3.71451 30.1232
3.07411 5.92363 27.2879
4.28173 3.50529 27.3594
3.1584 10.9431 34.1199
4.67567 5.66676 24.9138
1.53489 10.1577 35.2688
4.2855 2.73577 5.19096
2.04914 3.00235 14.0455
2.52007 5.15231 8.2552
1.45527 10.052 33.7224
7.88503 7.59452 39.0565
5.12977 6.811 19.43
5.61455 8.9054 41.057
6.15841 9.33172 24.2376
2.00548 2.17098 21.1866
1.32088 10.7143 49.2884
7.99522 4.93582 9.94824
4.86965 6.99749 24.8191
4.06624 7.40143 17.1568
3.28993 5.04957 29.4716
6.23315 6.45084 49.8745
5.56658 10.396 22.3528
6.14013 6.44204 32.4355
5.30307 8.34149 35.1479
7.68265 7.70823 17.9909
4.16938 5.81977 15.177
3.07505 2.30205 13.331
3.32796 6.22132 30.8745
2.76459 5.985 19.1456
5.12263 4.53299 14.6899
3.70723 2.23254 12.4614
3.51738 17.7315 51.0493
4.73032 5.8415 45.9566
7.20138 10.0233 25.8913
3.29237 12.3643 37.2783
5.82087 6.58579 20.9224
2.57072 2.5352 5.3373
2.73834 5.21629 39.5241
6.76982 4.05402 11.6959
3.43495 8.00057 28.6023
2.38652 3.76497 27.4222
4.24376 9.80233 26.473
5.39458 4.97668 13.3482
4.18962 8.35602 37.7057
3.58498 5.50181 39.3146
1.59628 4.69591 21.2648
4.09006 9.46653 24.5474
4.01791 4.33696 23.1855
4.12045 5.37806 7.07043
2.41758 3.68214 15.1887
3.05763 3.13611 16.0624
3.54876 7.41398 30.0798
3.90215 8.54637 29.582
4.30582 4.73642 45.1016
2.03692 8.96232 20.8073
4.27855 5.08127 34.1791
1.9261 8.53178 43.4274
8.99075 12.4967 33.2099
4.56854 12.4952 25.7545
2.50613 5.63473 26.7584
4.4722 5.45669 20.0436
4.06203 6.84634 20.0788
2.78894 3.47301 13.2543
3.15048 2.99654 18.6406
4.80834 9.47122 45.7958
4.64166 5.50337 10.2695
3.23207 3.20892 26.5542
7.45426 10.8763 30.8122
2.39091 4.65933 37.3963
2.96096 9.06132 22.7861
1.30314 6.70924 16.8107
4.52398 4.88197 20.1839
3.02526 1.83118 15.1206
4.91936 3.21567 16.2724
1.37393 8.71963 39.374
6.43709 7.30493 16.7497
4.74864 5.87436 22.4271
4.59901 8.15226 32.9109
2.13963 8.79542 21.9781
2.10201 6.86725 36.4214
6.47964 4.58367 16.7746
4.90421 4.35039 4.76069
1.77251 3.70923 4.87853
1.76691 4.10109 30.3673
2.08592 4.29877 19.2519
4.55855 5.31038 13.4668
4.22356 4.50459 13.5625
3.91931 1.39312 13.1044
3.86846 3.83124 8.10984
2.95494 3.04533 35.8302
6.64826 9.13529 27.1951
6.06958 5.77214 16.2131
5.33887 3.86069 13.5784
3.85287 3.84845 11.4634
2.01677 13.3313 56.6516
6.2775 7.63093 32.8534
4.58787 6.66626 18.0148
4.1617 3.44038 23.0781
4.86124 6.80317 22.4778
2.12105 3.51277 7.75099
1.20063 6.4443 21.2726
4.65437 1.31384 32.6634
6.39578 13.4817 18.0729
1.46665 4.58435 51.5386
7.58419 15.2557 28.0703
2.21663 4.21624 22.673
4.79255 6.42681 26.4267
2.66533 4.55564 18.5634
3.29419 2.59569 5.46787
3.32563 1.10723 14.2606
5.29517 4.82446 20.1688
3.32264 10.3299 41.1597
4.65598 7.36871 39.6216
5.65553 7.29334 34.1757
6.5211 8.07769 14.7865
4.07173 6.09998 21.3649
2.63257 5.10816 30.882
2.24138 7.31938 20.0941
1.18361 2.94927 33.9261
3.12136 15.1155 27.1404
4.31324 3.36075 28.5411
1.32353 1.46895 9.58776
2.22977 4.92868 17.7677
1.52206 1.82224 8.36327
2.31159 5.204 28.5061
4.36992 9.375 41.787
4.13315 5.16076 15.3858
1.8294 4.52661 17.6445
3.62326 4.27688 31.4619
2.34964 6.15154 29.8969
1.76108 4.76525 24.1508
3.66126 7.46093 18.7733
3.21027 3.83527 6.10793
1.82706 8.91793 44.9016
5.35011 6.75621 9.98991
1.34014 3.4136 28.5
4.23154 3.4798 12.943
2.78733 4.07091 7.94055
3.18947 3.04431 11.5922
2.66328 3.55816 39.6896
2.91556 6.60467 9.79251
1.50143 9.92078 35.3932
5.30688 7.41219 27.3534
6.056 3.94196 24.7943
4.47924 7.37284 11.4455
2.28273 4.9437 21.6535
3.45769 4.3329 16.8213
2.89478 3.44664 18.5715
2.85406 6.81719 12.2453
2.98162 6.67855 37.7962
3.25113 5.76109 24.8545
5.36613 4.23668 15.3337
3.27541 4.12591 35.8347
4.62363 5.35064 24.4539
3.8009 8.86092 38.872
1.66745 9.78777 12.0522
4.10753 4.52834 13.018
4.31797 3.36526 26.8267
5.13321 8.42206 53.8422
8.23575 12.0674 41.1386
5.62843 14.4961 26.0761
3.01412 0.830463 16.7322
4.04662 7.68721 14.2795
3.1857 2.17348 39.0827
3.53539 9.90835 29.9175
4.90313 3.72236 13.2163
3.15502 7.1255 19.9317
5.1297 2.42013 18.138
1.80684 3.86454 12.4246
3.50391 4.12521 22.7253
3.49811 6.68613 20.7412
2.80655 10.4758 57.1217
9.57472 11.1774 31.8292
2.71923 5.30049 14.2019
2.20468 4.7447 18.4906
2.97962 6.13864 16.9228
4.03179 2.16243 26.3785
4.72889 6.01921 13.0099
4.90457 6.17872 10.4325
3.05899 3.30577 24.849
3.55896 5.58079 22.4522
1.48203 6.72804 35.7698
4.90205 5.23108 40.6556
6.6574 11.9106 28.821
4.69669 10.3579 21.7168
2.76964 3.57762 9.82289
1.90016 3.98109 17.4191
3.02411 3.88471 27.4135
5.88756 5.47035 44.524
8.80279 12.6275 15.6296
3.13997 5.257 22.27
3.31557 6.02796 29.6262
4.6047 6.36021 21.7262
2.39687 4.77171 11.6456
2.67108 5.46647 25.0415
4.2638 5.47542 32.6739
3.68576 8.65577 23.3385
2.65786 8.9093 14.9851
2.72637 3.80683 28.2484
4.82344 7.02799 25.4809
1.49487 9.28069 63.6289
7.61947 5.58081 18.0356
2.76053 1.61476 13.5552
3.18111 1.06224 21.6979
3.20939 6.25833 16.1662
4.17953 5.78811 30.059
5.78762 5.68992 18.2594
4.02308 7.46867 28.9339
2.8183 11.3655 24.2239
4.47022 4.14828 29.5609
1.29022 11.076 41.8498
6.42761 9.34016 24.2695
4.27682 5.477 31.0504
0.518616 4.64254 41.8953
5.95644 11.7721 22.8534
3.04846 3.35305 21.4464
3.00688 0 0