# pn-170911/CsII-av-TWTF-1280-1959.psd
# Power spectrum* (dif=0,1,2) (really just |FT|^2)
# NOTE: only the first half! (symmetric)
# weeks: 1280-1959
# 4 clock-days, 0 excluded
# PSD: 1441
44491.1 1.70902 0.00734105
1.34973e+06 41.0515 0.00318946
1.06918e+07 253.245 0.00661548
3.54398e+06 171.921 0.00809394
3.96204e+06 275.191 0.0305192
408475 36.4749 0.00882817
420851 117.904 0.0213252
350519 65.2864 0.0186416
357866 104.871 0.0327278
385000 89.6046 0.0433319
17170.4 34.7119 0.0208155
168012 36.5104 0.0247024
135870 155.044 0.113397
100832 95.3981 0.0707134
282916 154.107 0.151998
124738 145.474 0.150928
81836 81.3833 0.105717
166493 202.526 0.307474
35082.5 54.0345 0.0767696
76126.8 128.922 0.232132
31208.6 25.0846 0.0677759
24894.9 29.9234 0.0657039
75473.3 119.822 0.268113
49056.6 84.8303 0.245561
51153.3 65.3998 0.191843
19686.8 49.5649 0.144442
47217.3 154.966 0.496344
19407 55.5849 0.20527
11457.2 65.9156 0.242188
36973.8 94.8823 0.379652
26511.1 138.987 0.572123
44981.3 183.111 0.857288
9086.7 46.4378 0.246603
38457.2 224.932 1.13948
11004.4 111.036 0.640473
27509.4 206.829 1.22564
17033.6 43.1368 0.246733
18775.6 64.4972 0.428529
21091.2 85.9911 0.596142
11398.5 43.2563 0.336433
15852 91.6509 0.780854
7790.77 47.4108 0.387893
18000.9 64.8797 0.568983
21535.8 192.196 1.66153
7599.7 144.91 1.31389
18211.9 130.527 1.20542
9577.22 75.9044 0.677262
17273.3 141.177 1.4683
11584.8 121.243 1.30332
13668.4 115.12 1.24405
10709.2 112.242 1.3548
11652.1 97.5015 1.19988
3705.59 40.5939 0.523521
8656.21 89.3166 1.24467
6045.56 57.3993 0.789715
6830.62 76.1172 1.11772
1836.16 46.614 0.720101
12657.9 130.491 2.07264
6331.11 92.1489 1.47373
3236.54 59.2511 0.93434
7854.8 111.625 2.0652
12642.7 154.453 2.61889
5959.17 51.9658 0.943883
5761.28 68.0859 1.23712
6220.94 111.232 2.21538
7950.57 160.709 3.30414
4086.4 65.1579 1.46957
6293.47 85.7188 1.82158
8536.92 79.395 1.73164
2845.68 46.4835 1.17154
2449.92 34.4337 0.702808
4441.07 92.2721 2.1764
4903.53 74.6666 1.86013
5643.23 68.0426 1.6449
1778.9 51.2228 1.2403
7579.66 165.265 4.51465
6236.19 158.116 4.41381
5945.88 119.22 3.25959
2870.33 81.7107 2.55239
3879.84 78.9748 2.26068
3934.06 86.5882 2.56869
2358.3 105.406 3.09758
2268.46 48.4931 1.60453
2640.21 29.141 0.914888
749.022 30.2202 0.939015
5675.39 179.895 5.98249
2176.18 49.3152 1.72085
4143.06 73.7966 2.59826
5317.73 99.873 3.80277
1962.43 23.8802 0.865045
2878.53 86.5827 3.28146
1923.83 33.1285 1.28237
1037.73 21.9894 0.899312
965.56 23.4956 1.05642
1088.81 61.3174 2.45364
1303.14 60.7765 2.58431
3071.5 60.0696 2.69224
2914.81 83.0074 3.75513
1449.8 41.6596 2.06573
2113.18 44.6911 2.06464
2579.4 88.0744 3.91688
1023.01 38.3534 1.83812
1915.56 59.3575 2.90032
1785.61 36.5323 1.97655
1748.66 124.054 6.4184
1005.26 55.1594 2.73275
3271.81 107.018 5.82275
865.871 27.551 1.38084
980.408 53.5119 2.92067
826.68 48.7405 2.88901
1053.55 73.5714 4.13121
1797.7 94.9806 5.65933
772.894 21.0436 1.28737
2516.43 76.1253 4.67938
2190.87 184.113 10.986
1763.6 53.3837 3.20267
1758.98 42.4949 2.59966
1752.67 98.6694 6.72255
1036.14 32.1099 2.0672
691.051 66.9993 4.2737
1691.75 61.7781 4.01551
1297.94 59.6906 4.36951
2160.19 88.499 5.87909
1236.93 40.5083 3.0622
1014.25 41.3099 2.97221
1676.71 102.697 7.93028
2719.71 172.644 12.7865
1261.18 125.323 9.92271
1513.1 57.9825 4.48161
1097.98 47.1645 3.77407
713.559 54.6172 4.37397
1562.28 85.7793 6.95865
187.509 33.4509 2.44588
572.746 62.1208 5.40591
905.845 34.6488 2.96701
457.729 54.2233 4.95215
1465.62 75.6419 6.53331
931.295 19.478 1.74751
1258.11 54.6876 4.73574
1224.64 52.051 5.2436
418.423 52.7085 4.88506
791.81 30.1723 2.99909
1459.22 96.9006 8.97819
541.742 40.8312 3.84209
603.344 46.7862 4.86591
1163.09 47.67 4.80076
771.323 38.4163 3.78494
1129.53 126.761 12.9555
247.742 32.6574 3.12021
699.545 52.1705 5.63439
605 35.1744 3.62195
628.871 56.8399 6.27546
1006.3 83.2584 9.14797
657.831 55.8531 5.54251
359.705 65.5099 7.59663
683.143 45.0078 5.30394
925.044 72.1402 9.12061
443.9 67.2854 8.18675
1192.74 158.3 18.112
626.41 26.0685 2.9499
749.029 60.3301 7.17704
583.233 46.6534 5.7368
406.999 54.3988 6.56963
545.319 33.5046 4.60543
257.875 41.7332 6.47082
1143.55 76.1332 8.46559
973.595 73.709 9.87684
1159.13 61.1378 8.12659
336.369 28.6515 4.00812
532.935 38.8277 4.8913
480.2 43.839 6.51272
609.277 71.5644 9.83959
816.059 53.8941 7.61263
950.327 67.1339 9.22435
683.536 55.2663 7.52567
453.591 45.1604 7.35529
418.639 31.4324 4.62582
1004.31 77.7493 11.2863
299.843 17.4396 2.72746
550.402 34.71 4.74872
543.439 43.603 6.3345
553.146 65.5442 10.9566
314.344 49.1488 7.03225
267.78 45.4848 7.64269
856.941 62.3601 9.63616
271.313 31.9966 4.9087
544.624 62.6138 10.5351
363.949 51.9372 8.06623
612.137 63.7282 11.6862
141.903 12.6408 1.64186
297.447 28.5532 5.72606
455.594 49.6276 6.91566
90.6464 54.278 9.87512
574.746 56.72 9.98331
266.167 44.2568 7.23595
452.325 33.2532 5.77385
670.958 66.0351 12.0547
370.992 23.1842 4.05491
329.102 22.7246 4.16514
469.508 51.3013 9.96186
541.706 84.7298 16.6097
562.984 70.0542 12.6523
222.103 24.0747 4.11291
280.223 21.4404 5.08473
393.322 69.238 12.7635
736.468 87.9442 18.1484
262.939 32.9315 6.34665
721.725 71.9607 14.4693
330.473 45.4629 10.5163
118.35 19.2273 2.47106
329.767 78.8465 16.4069
624.672 57.2748 11.3269
372.813 17.7512 3.9143
239.114 30.6896 6.44471
446.204 53.9891 11.8044
289.532 30.5586 6.25724
214.814 32.7929 8.49071
708.889 73.8869 14.6062
503.98 46.9296 10.2441
328.192 45.1509 11.165
341.393 50.4609 10.8549
448.14 53.15 13.0391
84.6469 13.5299 3.22001
353.771 35.2977 8.92659
119.28 40.189 9.79692
231.804 26.495 5.42227
307.419 29.0168 7.21828
213.969 45.0532 10.8215
475.047 84.839 23.0609
323.855 42.8945 8.52453
174.496 48.6246 10.8249
265.389 47.3383 13.4549
200.293 26.7986 5.83847
164.732 43.5454 9.78176
189.124 60.3567 15.9907
203.564 22.9349 6.36188
516.247 54.5972 14.797
339.348 42.5794 12.5802
83.1265 12.1851 3.35801
164.302 35.2046 8.71375
113.653 43.4227 10.1797
259.089 63.4507 15.6535
293.168 64.5265 18.1616
345.691 44.9226 13.6323
533.526 76.0485 20.4275
124.686 28.5434 10.3459
73.9428 9.07655 3.8826
144.259 29.215 8.40934
249.364 18.1937 4.72893
391.922 84.8183 24.1866
210.493 39.0284 11.5364
157.736 28.9695 9.53215
171.151 28.3856 6.58037
126.485 38.992 11.7325
187.886 34.7791 11.1429
247.912 21.2493 6.07208
167.315 39.5248 12.4545
241.25 27.7139 8.36799
137.124 29.894 9.22956
230.909 25.7944 8.14186
135.749 31.2325 8.93491
150.505 33.7892 10.7715
121.854 26.655 8.87185
386.546 60.1026 20.2169
198.878 49.5109 15.3785
138.269 27.5698 7.68611
43.8798 13.2065 4.00811
139.489 31.7243 11.9597
52.7881 18.2274 6.55531
160.383 7.71355 3.51315
189.346 67.0855 20.622
190.569 44.6142 15.233
202.39 26.944 9.15408
83.8111 30.8363 10.0074
158.192 37.6963 10.5214
210.1 38.9244 14.3421
108.876 5.34533 2.82733
93.5917 14.9595 5.48437
143.571 21.543 6.89918
86.2417 22.5977 7.9834
183.818 37.5363 13.1003
127.714 75.2035 28.5277
156.418 19.8305 9.06876
113.518 26.3685 6.6803
173.216 41.1283 12.4843
119.781 23.1278 9.04863
186.24 44.8198 16.1475
87.4731 22.9091 10.6515
244.793 38.2226 14.5924
45.9204 7.96019 3.40178
51.574 26.0568 8.50324
215.874 118.136 45.1783
43.9939 29.0974 15.0319
123.707 14.0198 5.94503
277.845 39.7152 14.6729
89.8024 24.3779 11.0698
176.951 40.6803 16.2127
64.4237 19.9414 7.28336
109.161 8.80435 2.85927
54.8497 21.6976 9.22228
81.2897 24.1803 9.57439
175.923 35.1376 16.0937
92.8158 16.6473 4.89784
66.4973 18.7426 7.23647
67.3149 25.8246 12.5545
124.423 24.0991 10.1958
72.7605 15.6143 8.51299
86.8555 16.1359 5.76669
153.979 21.2356 8.76009
171.496 21.4935 10.6181
88.8005 32.7493 14.785
72.8876 48.6671 23.1471
155.986 29.9164 9.47716
119.807 16.3141 7.97443
130.845 13.0255 7.94139
88.5328 83.8593 36.7032
148.946 16.6217 6.77761
121.657 24.35 11.9847
39.5955 30.9284 12.1227
105.231 34.1136 17.7113
102.944 16.7308 8.32425
111.244 37.0601 17.3386
135.226 38.1446 19.5106
132.869 16.5274 9.00075
72.0466 25.6588 11.6641
159.459 34.8244 14.8324
65.2953 12.2529 5.77743
88.259 28.7382 16.4244
278.507 53.2657 28.1767
40.9331 35.2519 16.0964
85.0554 35.3175 15.0425
86.0532 44.8784 19.4957
50.5416 7.7748 5.38937
115.416 42.3789 21.1854
90.3986 12.0565 6.55301
130.292 39.357 19.1704
82.7273 18.566 13.3234
44.5516 24.5864 11.8709
74.573 10.3874 6.64917
137.431 22.5075 9.76282
60.64 4.74551 3.5574
91.6622 20.192 9.25135
106.297 25.7868 11.5523
158.225 40.5522 22.8073
107.531 19.8099 11.9387
63.8064 30.6831 18.5152
137.001 34.6181 16.4543
59.1124 11.4744 8.81437
72.5452 13.7272 4.98172
103.152 15.9853 8.03234
77.3812 16.6258 10.144
40.3651 19.1845 12.0462
159.253 33.7734 23.1809
92.1883 13.5572 5.86402
46.1705 10.1607 6.52206
75.2616 9.48261 5.24945
89.8696 20.1567 8.24419
158.19 70.9844 39.0193
94.7762 11.6331 7.17202
109.234 16.6232 11.0236
52.6881 24.2498 12.4413
106.061 27.7957 19.4617
66.8756 10.3439 4.70333
98.6978 40.9037 26.9881
112.254 59.1748 34.6464
98.0427 7.00957 3.33286
114.552 15.0861 9.30338
80.3633 11.2324 9.23373
107.628 42.1733 22.281
68.57 13.642 6.59656
132.736 35.2803 23.6996
153.063 74.4337 44.4403
92.5114 19.9668 14.1333
32.4067 6.53565 4.78997
48.0377 20.3982 10.4293
56.2164 12.2565 10.4886
110.939 19.4559 14.9396
115.683 37.149 22.8759
93.3452 58.0959 33.1331
90.0409 37.1759 25.8948
130.871 38.8508 26.3249
124.331 31.8539 16.4632
64.0608 12.9668 9.62509
63.9023 32.5677 22.5056
89.029 27.5728 16.8129
22.5049 26.4323 17.386
38.0498 7.76925 5.70768
109.749 42.85 26.4396
52.9171 26.7529 21.7145
100.739 29.1725 18.6858
37.1558 35.4001 24.0814
72.8823 9.52244 4.28245
69.5937 8.63789 7.34937
66.9403 16.9775 9.78731
73.1745 12.1459 10.034
59.0133 31.4449 23.8326
23.0808 14.4787 12.5493
68.9256 11.837 8.23606
64.4709 26.9306 17.0358
93.5955 8.17117 3.04897
92.7188 25.6491 19.4062
50.4505 4.67987 3.50119
46.7148 9.50488 9.2015
62.3012 21.568 13.5738
48.0609 12.3431 8.05836
70.0989 21.2788 11.8846
74.0484 32.0255 29.9639
96.0537 32.85 18.9222
37.6281 4.18981 2.99601
60.1326 19.6713 16.835
54.4466 13.0571 11.557
75.0353 15.8969 16.384
77.5585 14.3807 10.4631
58.3934 9.17563 9.50184
75.9958 21.5692 9.99717
34.9791 22.9129 14.4862
113.544 40.5945 28.9105
96.242 28.4384 17.4932
68.7842 13.8885 11.5351
43.931 26.2094 27.3641
64.1038 24.4921 14.3874
41.0242 15.4108 12.6399
93.7271 17.4713 13.1948
42.9706 9.02298 8.15045
34.6605 8.91676 6.41395
33.3123 6.52161 8.53637
78.8093 38.6824 28.1346
70.6606 21.7375 16.1943
27.6375 8.97803 8.23524
38.6624 29.1583 21.8021
57.1498 12.0661 14.1098
49.0984 38.4011 32.089
49.0791 7.41595 3.33564
88.46 35.5767 30.3586
36.8321 14.8283 9.63534
49.2534 12.6352 11.393
106.16 34.5063 29.2378
35.0773 9.85318 10.1739
31.212 17.3979 13.3216
51.6371 9.66993 8.62786
62.8904 20.1066 18.6179
50.5327 29.8962 25.1567
32.1913 4.97295 5.48464
38.365 12.6526 11.0225
32.2278 7.37905 8.59365
60.7581 26.6321 18.4452
28.0034 16.4552 17.8536
49.8196 8.41085 12.1877
69.6127 24.3584 22.2429
16.0794 18.0397 12.081
29.2726 10.3954 13.8223
48.2634 20.015 14.1316
29.4232 8.36247 9.51449
44.6755 9.69484 7.03633
29.1785 20.3677 18.9721
53.8804 16.1677 15.5702
72.4347 12.0541 11.1032
25.3371 18.7484 21.2009
68.5009 15.8916 9.69515
39.7803 11.3901 10.9568
22.8382 5.23418 5.54773
48.7884 7.69754 8.03027
47.9027 20.2363 22.7649
57.0643 23.9738 23.073
28.9969 14.3247 14.7045
59.0918 24.3018 15.9551
30.6866 14.1296 15.0057
26.9689 7.91703 7.05595
23.6371 11.8058 11.1067
33.2374 25.3352 22.7478
48.5007 8.27511 7.52952
50.3841 15.3029 16.5901
56.6642 13.5069 10.3472
54.0041 22.2385 23.8804
38.6159 7.78579 8.36498
39.4328 20.9372 19.8427
52.8323 15.8425 20.1767
26.8569 13.4855 14.7771
38.127 20.2804 16.8309
46.0607 25.1157 23.7339
46.3389 10.4901 15.599
29.6344 10.0488 11.8548
40.7006 14.8171 11.0065
36.3716 16.2767 17.9208
22.7746 26.464 23.0845
32.6226 3.44752 1.95328
31.0607 13.6563 13.8667
42.9525 17.1197 21.0591
42.8869 9.39798 5.99718
37.3332 33.2527 43.3007
44.8154 18.9473 11.6535
39.3879 18.2284 20.6777
31.2948 8.2968 11.8296
26.8252 12.4813 11.3659
36.4696 13.1592 11.2548
29.3104 16.4097 20.8846
32.0713 8.76411 8.58553
21.1438 6.13697 4.97781
26.3709 4.18553 5.94424
46.3219 5.85277 6.26326
53.0403 31.3137 38.4806
32.1162 17.4507 15.9664
19.1028 18.1177 16.0488
28.3786 11.7448 16.4912
21.1973 8.15512 9.71917
19.6821 26.4817 25.7888
31.0908 3.2625 4.6544
40.5867 11.5839 16.5044
50.0915 14.305 16.9765
42.281 20.3239 20.6225
36.559 7.50334 4.69017
40.8859 12.4275 10.4202
39.6916 11.2762 17.5193
29.0443 25.9795 26.0876
44.4839 7.76854 4.47346
39.8702 15.4031 19.3429
42.3548 13.5849 14.1358
22.085 7.97753 13.3693
49.5633 10.9201 11.1471
28.9303 5.06722 7.97391
37.2603 12.1313 12.6207
34.8648 5.52944 7.98855
37.3665 12.2496 8.65823
23.2335 9.37808 9.26082
22.5982 14.4923 20.4568
40.7316 10.6787 11.7935
65.4526 24.5666 24.7106
20.0948 6.81924 9.16137
40.7468 12.3417 17.3769
34.4384 11.8832 9.80419
25.5851 9.50153 11.9086
40.1521 13.0677 13.1087
23.6097 18.6567 24.2818
33.775 6.69922 10.3946
53.6981 40.7357 47.1566
14.7247 3.39453 3.73128
31.3619 9.62421 12.4671
14.5742 9.30529 17.1113
23.054 16.0184 13.5087
14.2582 10.433 15.5245
29.6266 6.01961 7.12366
22.9157 5.71929 7.67016
46.6076 11.4707 9.87257
21.4083 17.4728 25.3752
37.7937 17.847 23.7471
23.6726 3.0142 7.88365
56.1642 32.7705 36.3806
21.9673 10.8192 25.2923
31.2948 20.6398 23.1048
25.7713 13.3465 17.8757
23.8755 13.6968 20.2948
47.7251 11.7666 9.96702
22.2609 20.9203 28.3808
39.6129 9.53243 12.6394
7.5484 14.6245 13.9464
27.9884 8.08651 8.69056
22.6886 7.91122 13.0106
7.9009 8.26898 6.84718
15.3091 10.2425 11.351
24.3151 3.03857 2.88115
29.3527 10.0177 14.4012
25.3389 9.92043 11.4183
14.4648 11.8519 15.6432
25.9194 1.89438 5.04867
37.7871 8.1194 15.2682
19.2999 15.725 18.2942
35.4077 12.9118 16.3291
18.1929 9.76005 14.1526
39.3236 12.436 15.6525
28.2684 13.3873 22.8277
49.82 15.094 18.9447
25.6459 10.3884 18.2997
17.5654 18.9013 18.1392
15.2412 11.9976 11.9989
24.4114 7.16769 8.81956
30.9953 17.7891 18.9392
24.0615 9.2795 15.6908
31.3094 29.0381 49.4739
37.025 21.7571 23.0517
25.7177 6.21314 8.96734
12.0955 8.78901 20.7178
22.0312 12.5262 10.4657
21.0797 15.076 19.1428
18.6831 13.7404 17.1773
34.0772 16.0787 23.8415
29.3443 8.85501 16.8375
33.8794 11.4024 12.1706
15.1096 12.1844 17.9837
21.2408 12.3242 16.4866
20.5295 7.61916 13.3703
31.0021 17.8109 19.6012
14.0326 8.38673 13.0821
29.5449 12.3302 21.9007
29.9011 7.01679 11.5501
45.7501 21.5285 25.5967
16.1106 20.4051 27.2979
14.5093 9.85491 17.3044
29.0181 7.72808 9.8411
11.0684 6.4699 14.1852
28.1542 13.5598 16.2355
26.092 17.2747 29.078
13.065 7.48822 11.8892
20.6177 24.1564 34.7975
24.7759 8.43293 11.956
30.826 9.16529 15.3338
33.0599 6.95633 11.4822
11.4089 10.2128 19.6073
22.2795 7.12083 9.18106
31.8289 10.0948 18.8698
26.2137 6.42863 9.54398
31.9324 16.4093 15.8466
13.9246 2.46926 5.61664
16.0698 6.82234 14.0934
29.0191 17.3943 23.512
26.36 2.8985 4.19237
34.477 12.1157 20.7529
29.7379 11.542 13.8297
22.0528 4.09089 7.66299
16.8541 3.25379 7.45711
18.3152 4.61158 3.68421
20.0649 4.11889 7.36279
18.2171 2.74372 4.4003
13.5806 3.48911 6.33175
18.0466 10.635 19.9255
31.6128 15.873 19.1653
27.2057 13.1298 16.0538
22.2311 6.04958 11.7836
13.8723 4.63471 5.0518
23.4712 13.9364 24.4941
19.9461 11.5853 19.2606
17.8203 9.07471 14.3183
31.9516 13.8471 23.1228
23.5517 6.91276 16.1023
33.6309 10.2785 15.1061
30.7591 10.8895 17.2477
17.3556 8.51192 18.19
19.1713 15.723 23.4
16.6715 10.8249 18.693
31.4082 8.72009 11.0857
13.9272 9.39042 19.2883
30.0994 9.71764 13.9175
20.3999 4.45258 16.4165
8.10493 5.60791 8.70977
29.0381 8.39252 16.6358
17.2903 6.1933 11.2085
17.8011 10.8006 14.5646
19.6783 24.3609 37.3293
19.9076 3.7429 7.06371
17.0436 10.0532 15.4313
20.435 4.93185 5.51614
18.5964 11.7288 19.7797
26.6009 7.1189 9.45314
11.3557 5.72426 12.3983
16.3951 8.11048 13.3618
15.768 10.0176 18.1507
33.3012 6.68669 8.11825
25.959 9.25777 17.7028
10.6815 11.7758 25.6727
29.8326 8.60513 16.8275
39.2306 12.1435 14.8074
16.0224 4.52001 8.47844
15.8183 5.58172 17.371
18.2795 8.68241 11.4865
20.0406 10.8328 16.6197
21.1578 4.33194 6.01223
12.8143 10.3136 20.9512
15.0749 5.06887 13.7108
13.5017 7.05477 11.7789
25.2035 7.65923 17.9091
17.2904 8.75741 12.1564
18.7318 7.87779 9.24165
11.2773 2.24355 4.79221
11.1099 8.08806 13.4241
16.8013 7.4769 11.679
19.7009 4.86611 11.8383
26.6353 7.79295 14.0018
21.3137 6.04653 8.40146
18.1375 1.41494 6.31988
15.1568 7.04954 13.6339
14.8959 6.45906 12.1245
29.1677 12.6229 10.9974
28.9996 25.84 51.5196
24.9189 10.4062 22.6441
20.4948 7.44857 19.6991
10.7598 6.44919 7.05093
21.2698 9.69278 22.2356
17.6994 27.2355 45.7057
14.769 10.5048 28.119
28.7631 5.42491 5.05117
12.7367 5.70466 12.5898
20.0145 11.1686 20.0681
17.2397 9.11386 21.7993
19.7456 4.61422 6.62529
23.9331 4.34478 6.16884
11.8867 2.3265 3.74054
14.4764 11.8088 32.8701
30.5865 14.1244 13.8186
15.9248 6.37402 12.7554
25.5156 14.536 28.5223
25.7422 10.6697 10.3365
14.219 12.7841 29.4209
19.7471 5.00485 10.2739
23.0793 12.6869 42.1436
20.8566 4.49849 5.63273
22.456 8.43092 17.8652
16.4609 8.31674 18.3805
28.8824 9.11473 6.72888
21.9784 10.5029 18.1689
14.8818 9.02156 21.6493
16.1259 6.05201 12.3648
15.7175 6.99666 17.888
16.3345 11.6326 25.9288
16.2575 10.1736 13.8083
13.1861 13.0937 23.0417
19.3331 3.74111 9.93111
26.1594 10.4853 15.9817
15.5229 7.29861 21.6336
29.0695 14.3738 31.4898
17.1334 13.9222 19.7686
19.2047 8.97808 15.8368
11.1848 8.91381 18.774
24.1958 5.48499 9.5766
14.5045 0.655595 9.25617
33.42 10.5851 16.9993
14.6169 2.74374 6.48904
26.1075 10.486 11.7976
12.566 3.04829 7.43081
19.4714 6.59779 10.6732
23.5047 11.2805 28.2899
30.1212 16.6477 21.171
14.6301 2.88713 9.23061
10.6296 5.4035 10.7424
15.3869 3.4511 6.79563
12.2682 1.84485 6.43144
17.8524 11.8469 27.4962
10.0762 3.96948 4.74711
15.5333 9.20747 21.5009
14.9546 6.04506 14.5145
25.7532 5.44864 14.1949
21.8556 7.0802 13.3777
20.3043 12.5449 19.3836
14.1482 5.50392 22.5989
8.34899 6.24153 7.50503
10.4735 9.41827 19.5832
18.4947 6.10266 8.89783
19.7565 12.8207 34.1021
9.25911 2.32173 9.92586
7.75883 4.71691 7.58665
10.6078 2.93398 6.90793
14.3875 4.6453 11.5545
17.1596 4.83867 3.97342
15.9447 2.78666 6.79747
12.585 2.4839 4.37803
11.9853 1.73869 8.58142
15.0349 5.49774 15.4064
14.6993 8.82637 11.0224
10.7421 6.02313 16.7413
21.4436 5.76881 13.5609
14.2748 9.43385 20.9218
16.9956 4.80098 9.33338
10.3623 6.67929 11.7437
13.9389 1.457 6.39291
16.1829 4.60861 5.53527
15.7395 15.8585 22.4912
14.3024 4.66446 15.6161
12.2233 3.75879 11.4583
21.4994 7.98233 9.64781
16.9365 12.3957 30.6121
15.2331 10.9542 30.4661
21.476 7.81828 12.0023
9.58483 4.26593 6.95851
13.2134 5.01681 19.4331
14.2875 6.08337 24.9338
24.9705 14.0199 24.7716
8.79207 6.96198 5.42316
13.1149 4.52519 9.72913
8.20139 12.2606 32.5844
19.5417 3.54572 9.13758
15.0122 6.42284 14.167
18.9479 6.217 16.257
14.0042 3.81893 17.6048
17.7813 10.4676 24.4123
19.2493 11.4811 19.1485
24.7905 12.2016 27.8198
9.56409 3.49897 10.0702
15.5888 3.49022 8.318
18.5016 6.46729 12.1955
15.5096 5.61872 18.5112
15.7566 7.56726 15.2691
14.5969 5.78212 11.834
15.1444 7.99184 19.004
15.1312 6.2436 11.2366
20.4877 7.64347 15.3756
11.3219 7.25325 9.78362
12.3636 7.36999 27.0445
15.1992 6.0269 9.40228
11.293 8.42262 17.736
14.919 6.49124 15.4969
17.1046 5.63636 12.2621
12.594 5.75486 10.5203
6.60701 11.9859 25.562
13.4467 2.3302 3.70703
12.6758 4.00198 13.4928
6.80804 5.97617 12.517
16.6234 2.03457 9.36943
9.10265 3.60476 8.31028
15.4662 4.22452 8.95818
14.5665 3.70013 12.2683
11.1738 6.06776 13.7658
15.8758 6.21107 8.93332
12.7423 4.2274 12.1104
10.5607 6.51819 19.9679
14.8851 14.9775 23.2962
10.0083 10.0954 32.4168
13.8976 5.54515 11.7514
13.5041 6.98889 22.2654
21.0486 4.59133 11.4354
20.0707 7.00272 16.5031
18.1021 4.0588 11.5666
12.1612 7.40075 18.1901
19.1641 10.9025 20.4957
6.88859 3.44982 8.91802
15.5085 4.14766 9.16729
11.0762 2.3173 8.38301
17.6144 6.43335 10.7843
17.9418 4.09763 6.21493
11.7751 1.92294 8.25494
11.7855 2.73755 9.03249
4.8949 4.66041 10.7708
17.9844 4.1467 8.2004
10.9058 4.05405 16.0323
13.292 2.71837 9.43745
11.6172 14.8782 26.265
16.9479 2.73046 6.19047
17.2126 7.86917 19.134
10.867 4.59822 21.9491
11.0768 5.95239 13.9927
15.9006 7.29061 13.0137
15.2081 5.50361 23.9259
13.7957 10.0715 9.38912
9.08547 8.33939 31.4874
12.3992 5.3638 7.0335
12.6312 1.68622 6.43803
14.5185 3.7131 11.8317
17.0453 10.4225 22.8184
10.1141 3.44079 10.2585
10.3723 8.23498 23.6506
13.9844 5.43896 13.1246
16.9636 10.6944 26.2726
9.26519 3.19208 12.5588
8.11629 6.79293 23.5009
10.1494 11.7723 28.8977
14.6646 2.34113 6.4354
12.3395 5.09099 6.94958
14.0509 9.04894 19.4745
12.9076 6.12719 28.4363
7.3774 5.40661 14.6688
13.6876 5.48223 11.3018
14.9807 7.92377 14.7099
9.61728 7.66523 15.4644
10.681 0.87053 4.37901
10.7211 1.28842 4.20131
9.35032 3.49122 8.35561
11.5635 2.98239 9.86563
11.4035 1.93523 6.24814
15.4846 7.81877 15.9815
9.87044 8.02056 19.7633
16.88 4.8437 8.15815
11.6023 11.6925 39.7607
12.0866 10.3266 29.464
13.0164 4.18705 4.74281
9.83323 3.03764 17.4525
16.8044 5.24935 9.53664
16.2595 9.90837 31.8684
8.28917 4.68656 16.699
8.85979 3.6834 8.03601
12.8209 6.02225 8.25083
5.63886 8.27535 24.3177
16.4174 3.42759 4.45012
14.9334 7.68695 25.2398
10.7284 2.48708 2.20916
10.4369 2.1762 12.3764
12.1996 11.0083 23.6561
7.83763 3.58183 6.69558
9.00243 5.82276 29.5242
14.606 3.75619 7.89482
11.448 3.86239 11.788
17.6001 5.22079 13.75
20.0812 15.8213 30.5405
6.72677 2.04524 6.36248
9.60905 8.24729 21.1677
8.1361 3.28766 10.6702
15.3471 5.12874 10.3713
10.0823 2.67213 14.0472
8.55717 2.96364 9.98975
14.7651 6.60768 6.6681
11.7578 5.99356 16.6795
10.2526 5.60259 21.7939
12.5894 12.1832 35.1233
10.0849 3.56967 14.6247
10.1128 3.9183 6.55336
9.60571 3.13558 11.0036
7.22082 7.50164 22.3089
15.2701 7.77889 17.5066
12.3991 3.97086 20.3194
12.8186 6.67703 11.2147
12.1768 5.38955 20.4156
13.9405 5.30818 17.064
6.44621 1.78766 5.68072
10.3694 4.32637 8.07652
11.688 4.68975 13.3504
8.55097 2.8283 6.5662
8.4743 3.32015 5.54867
9.33287 2.66869 11.3812
14.7255 7.02523 19.3638
7.87756 5.14792 10.4806
10.4881 2.45855 7.12989
9.53895 2.1481 9.76659
9.52209 5.3925 15.2056
14.21 3.34336 5.13379
10.9123 4.90696 14.1747
13.277 5.24078 11.9789
9.75734 3.58428 17.5777
10.2739 3.60382 12.7778
9.97714 3.3698 9.24007
8.45842 2.85993 11.6745
9.62585 3.11052 12.1193
7.93158 8.21245 16.2452
9.69101 10.5635 33.4056
9.06241 8.65826 16.2745
12.2447 2.16546 6.05961
14.0397 7.48469 22.2887
11.8655 4.98738 19.5147
10.2975 7.26018 29.8823
6.13908 10.349 29.7088
7.04925 6.37504 24.0904
8.52005 6.28239 20.8767
16.9093 9.18468 20.9188
10.2527 3.69166 10.3906
9.74803 5.339 18.3248
10.8081 9.531 41.6917
18.8351 9.25142 12.2298
12.9875 7.96677 33.2738
6.17817 8.28805 8.50157
7.71247 3.72095 16.8032
8.63027 4.31922 14.3245
6.97372 8.97179 13.336
11.4779 6.2183 26.3315
9.5086 7.54329 17.8171
9.25725 3.5389 20.24
8.50198 7.58111 19.0926
13.4053 4.65414 17.4342
8.92965 4.43641 6.1926
10.9233 4.48703 12.5277
8.98687 6.60409 23.4543
8.15879 5.90634 7.0591
5.75292 4.50495 19.1359
11.5677 1.20775 6.22813
10.8777 5.66695 11.2079
7.93577 6.80784 17.9252
12.4867 3.29337 9.95959
9.84005 3.46431 14.7517
14.3439 8.34954 18.0981
8.49808 4.27741 15.5944
12.3277 4.41128 10.1435
9.34729 3.45534 15.0364
14.7331 7.4597 24.9522
7.07582 3.97084 15.0981
11.3391 5.80998 7.26951
6.5458 4.68369 16.1337
12.8507 3.49182 10.1092
8.97664 6.03455 18.4184
7.18241 3.45022 14.3409
10.8877 3.35643 3.28634
10.0361 7.89562 37.0153
10.4792 8.07178 8.00336
6.97154 4.78926 15.0452
9.3732 3.36963 17.3059
8.46458 1.63205 6.64024
8.72581 16.0666 48.0517
11.0912 3.34557 14.5648
13.5759 4.47385 16.022
6.43122 2.86829 16.0537
10.0128 3.86032 8.58155
10.8189 1.74967 5.83913
13.5019 8.0893 34.2796
7.47679 10.0743 32.1823
7.56529 11.6296 29.2015
13.2742 7.16339 16.625
8.3021 1.51978 13.3081
6.52546 12.0173 23.3834
8.19533 2.00553 10.9322
11.5813 3.46252 12.2611
10.6616 4.02593 22.7332
8.18842 7.01537 17.0971
5.36868 8.34019 19.8772
11.8903 0.894059 5.65148
7.32053 2.09727 14.0035
11.3571 5.85954 6.02338
7.02354 5.44901 20.0393
10.6715 2.84812 4.7966
7.19625 5.28183 9.40626
7.05761 6.97121 20.1502
12.5738 7.44653 38.09
12.5393 2.68308 8.09658
12.0644 3.08983 15.2778
9.79624 8.66488 22.5805
7.81433 3.34944 9.22556
9.81176 3.20763 13.5664
12.2864 4.36958 11.8411
9.62736 1.80266 9.80274
8.78293 4.31047 7.28487
10.306 4.96417 19.9309
8.71892 5.4376 13.0618
13.2544 4.83208 19.0526
9.89258 7.56338 14.9826
6.95428 3.51485 8.64628
10.3348 2.07056 7.00136
8.97532 6.87123 25.6154
10.7955 5.27804 10.3048
8.18646 2.41974 15.7863
6.34482 2.13238 19.7362
7.82036 7.2308 14.1576
7.61543 4.85878 11.3448
8.72342 1.32882 8.12286
9.65104 4.08655 29.4032
8.12326 13.0174 11.6852
8.51752 3.78638 17.8461
8.5609 2.49421 10.499
10.9872 3.14433 19.1223
7.33301 12.4655 19.1563
10.2897 14.0526 45.2595
11.8473 3.30229 21.7311
9.07418 3.27457 13.9908
7.72685 2.703 4.02188
5.56943 2.41467 15.2159
6.22463 4.04441 12.1482
6.2499 7.18087 20.8475
8.28917 10.6116 37.832
17.2123 7.47012 13.581
8.82315 4.23884 20.0282
12.4716 5.14172 10.7008
12.7496 6.0434 24.8794
10.9952 8.30066 36.7222
6.21887 5.15726 11.1883
10.8594 3.65717 10.6962
10.0292 5.57344 19.1404
5.89398 6.50531 34.2549
7.48801 1.96877 15.0496
5.73761 11.0096 14.5895
8.92026 3.31978 18.3504
12.2309 3.72231 3.87013
9.57297 5.73012 19.9513
11.842 5.05828 11.7751
6.39244 2.16391 7.31359
6.34657 3.68645 12.5184
9.75056 2.35432 14.6581
6.91997 4.88073 10.7213
9.51941 5.92314 19.6048
6.47195 5.30451 16.1248
9.96747 5.241 16.4846
10.3563 2.42372 9.92392
10.7205 2.95983 19.9815
13.8373 11.6268 20.0454
10.0153 2.37909 23.6924
6.28623 5.97627 15.6446
11.9617 1.55849 12.3582
10.0895 10.1889 20.1564
8.95224 1.00284 16.626
11.6689 7.78248 17.583
10.6589 3.56879 13.2548
11.047 7.21479 25.1835
9.48528 2.89534 8.59032
9.73558 12.0791 29.9243
7.20202 3.5019 16.5181
11.7801 4.52802 14.3537
9.37115 0.701154 16.8501
11.4417 10.8018 24.5132
8.13976 2.7401 5.74488
8.68758 6.25036 18.3596
8.50887 5.03603 13.9942
7.42762 3.4912 25.5137
11.7801 1.26733 14.9955
11.82 4.17513 18.0267
12.5247 9.4329 12.5124
6.83964 1.89215 11.0641
9.16904 9.5433 47.541
13.3476 11.4306 32.5616
7.22651 4.11623 33.0587
16.0299 16.9326 40.0211
7.52826 5.01243 9.32858
10.7659 5.82772 23.8522
7.20795 7.39463 17.7008
11.2135 2.22308 17.5513
7.06395 5.62265 15.7388
5.64679 4.56046 15.7719
9.91385 5.8511 30.3865
12.9783 6.08064 19.8109
11.161 5.41426 10.834
10.2569 4.50505 12.688
6.62364 2.80399 17.0028
5.35495 6.84881 27.1412
11.1609 4.08902 7.76806
8.64323 4.22104 14.0386
9.15014 4.14611 10.8589
5.21594 2.34559 9.67935
10.9947 6.39543 12.5995
5.01231 2.57493 18.5005
5.43974 6.92259 19.9235
10.1844 5.5111 24.2023
9.12963 4.92939 9.64636
7.43126 1.64137 15.0661
5.39512 3.6776 9.74451
7.92718 1.70794 12.276
10.3778 7.11551 11.8855
8.91511 9.0937 42.3015
5.51281 3.49106 6.64864
7.52922 4.46854 19.521
6.91114 6.00269 15.2186
9.55349 3.89564 22.7115
14.1987 3.65989 5.75688
6.84701 1.85392 8.43846
6.17773 3.19343 38.8457
14.3197 11.5109 19.4136
7.97822 6.68135 11.1885
6.69082 1.95504 10.1187
9.97045 3.39333 19.5315
10.6088 9.2851 28.8866
7.34583 4.19817 13.1289
4.98746 7.10331 17.4265
11.6129 3.88151 23.5007
13.7495 8.1181 32.3011
7.26836 8.28415 13.2527
9.48359 1.07299 6.75549
8.67922 2.64005 23.3822
8.20953 7.87901 18.946
6.42957 5.76016 16.1047
10.6466 3.46127 15.7706
8.51384 2.42851 19.5769
9.67035 5.91047 16.9837
9.00627 2.109 22.0398
10.247 3.2065 6.90878
8.76526 2.78068 9.60834
8.39874 6.30657 15.4871
5.0229 2.92897 8.03728
7.71029 4.3083 22.6298
10.9693 8.08474 23.4769
9.42804 2.80025 16.2769
6.59908 4.96857 32.317
6.46398 11.0407 21.6964
7.45395 3.04116 19.8687
7.21705 2.88487 5.4989
5.57188 3.68072 18.7018
8.36484 7.12015 23.6255
7.72145 5.48955 27.268
6.07586 5.83847 10.9999
7.76411 5.17761 28.0357
5.6186 6.65207 26.1443
5.98213 9.51184 10.9137
7.42627 9.04963 44.6576
14.7159 3.1888 19.6291
8.62084 14.1241 45.1716
11.5588 2.19906 4.60989
8.2322 1.53918 15.0235
6.74674 6.67032 21.4655
10.703 4.21963 8.79002
9.10855 1.82327 9.96124
10.7038 4.84901 21.4549
7.76206 3.29187 10.6297
8.02406 5.15254 41.3935
8.75722 4.93356 9.83057
6.56553 5.42409 11.9537
8.03873 3.63912 10.3679
6.1215 2.08487 15.4253
9.68193 6.01223 15.5986
5.88141 2.88746 16.5262
5.28568 3.3359 13.2125
4.87928 5.73609 13.2375
7.47857 1.62368 7.89107
5.37901 4.58275 16.6938
10.9538 5.22076 18.273
6.75484 2.75705 18.7472
8.57053 5.94909 11.7485
7.40941 4.79333 19.3153
10.1928 4.214 21.4079
5.15089 11.0529 23.1169
8.84661 2.13294 10.3498
7.93927 5.66245 35.039
10.374 4.78722 13.0456
8.57613 5.01875 16.9757
7.74668 2.92357 8.94703
7.8146 4.46757 15.3689
8.73309 4.00982 7.99494
7.46601 7.47376 24.377
7.87698 2.99459 18.4571
6.25621 2.53961 13.5842
8.48241 9.90707 28.2732
9.23346 1.5595 16.8107
7.59888 6.71899 25.0956
8.46767 6.9654 12.0221
9.47054 1.2266 2.3072
6.78713 0.981676 7.85726
10.0538 1.61755 6.75767
5.01784 3.2748 15.6062
10.8847 5.83347 22.77
7.13265 7.16243 31.2325
10.8271 7.80929 22.964
6.40679 5.38385 12.7603
8.25635 2.51863 29.4823
7.44463 7.48085 16.7404
9.53455 4.40561 6.81149
6.76804 1.9238 24.7825
7.47393 6.24975 18.2822
6.39604 3.19948 8.66532
5.6897 3.61474 21.1747
6.54995 8.28288 16.6496
6.18713 6.79782 19.3423
10.354 0.69428 15.4497
10.6941 7.86659 18.3204
6.5244 4.79264 28.3005
10.1767 4.16044 14.9235
9.14846 1.70983 9.88014
9.03712 4.7597 12.8899
5.56377 3.06271 14.302
6.72602 3.22232 6.81699
7.37273 2.31056 9.11264
6.67057 2.35953 15.8313
9.25809 3.29765 20.8036
8.01416 11.1647 31.0631
11.0516 6.64389 20.0413
8.45747 3.00617 14.5219
8.84263 4.01077 19.6562
3.64 3.52479 9.11683
9.53961 2.90354 8.84195
7.78208 5.52917 23.6405
7.43117 1.63117 16.0041
6.52312 6.61154 16.5222
10.3772 7.17075 41.3485
7.92517 2.57421 14.7976
4.15002 2.24515 7.22891
5.07392 4.72773 8.56664
9.29301 5.84885 14.6576
7.35482 4.11716 10.7646
7.53539 5.28141 28.2474
10.0488 6.7591 21.3867
9.44592 2.58821 12.6428
7.87391 3.60336 10.7143
10.6588 2.11293 7.54654
7.98923 1.9956 7.74379
7.53893 6.15345 24.9691
10.8324 3.52777 13.008
8.0505 8.21973 37.0061
11.7146 3.47743 16.0917
6.44467 4.17286 16.2384
11.2413 7.58653 27.1993
7.6034 5.26649 19.6018
11.111 5.38921 13.604
6.80846 3.67728 11.5398
6.91497 1.90114 12.1863
5.70167 3.32905 11.986
9.36409 1.98762 4.58919
6.44865 2.47243 11.8828
8.95736 0.67108 7.08874
5.94419 2.39361 4.5576
8.18385 0.949357 5.83936
7.00871 2.22928 5.82936
7.02807 2.1131 11.2029
8.12845 3.41017 23.8069
5.5137 3.23497 23.1002
10.7055 6.85728 7.59808
7.24284 2.72556 12.0559
10.8115 5.26431 28.6175
8.59816 5.34074 6.22529
8.35432 2.72085 19.5904
4.30109 5.98546 18.4307
10.8823 5.21977 24.7142
10.3752 2.3379 12.8747
9.2746 11.4599 37.6584
10.1511 6.42189 37.6095
13.5633 3.13603 25.1755
10.4499 8.29669 28.7475
7.08727 5.86696 20.517
5.82354 8.64879 20.6496
6.83433 3.30682 17.1345
7.77374 9.12015 27.5286
12.2046 3.99398 11.5001
5.33429 0.648742 10.8579
7.47329 3.99577 8.51801
6.24351 2.69622 7.58168
8.09823 0.695774 12.0549
6.40894 4.64054 19.7338
9.06836 4.35093 11.8374
10.0317 4.06514 16.9068
10.5475 6.94214 21.0244
6.15206 4.2234 16.0422
9.8276 3.47937 25.849
6.93693 6.11703 11.188
8.27249 4.30734 13.3806
4.03392 1.82132 19.5671
5.89052 6.13017 21.04
11.7668 5.35143 16.8658
4.20305 1.73002 14.7598
7.15357 4.68441 20.6333
8.46238 4.04159 12.1142
8.29247 3.88817 19.4376
7.78104 2.9884 30.7965
7.50672 7.02196 9.22828
7.42869 6.07269 19.828
9.47926 5.34664 16.9578
5.99456 3.64199 40.7435
4.50211 7.57576 15.9961
5.90709 4.38714 10.836
8.94374 3.77129 23.7407
7.12344 4.32149 29.9083
9.09129 7.92207 13.6462
4.50613 2.01637 24.0106
6.49258 9.57674 16.1964
11.5407 13.0615 40.492
6.36038 4.12177 11.1913
6.29391 2.51956 14.8819
5.31995 4.9319 21.1453
9.13174 2.80051 13.0135
9.40418 5.09843 8.46761
7.41765 4.97128 14.9857
6.75213 4.50035 21.1975
5.51658 1.91987 11.8588
7.50536 4.19948 18.7654
11.0701 4.21863 15.0861
7.95212 4.77797 27.7206
7.57116 12.0168 36.1773
10.4958 4.26534 14.0774
4.45289 5.80472 29.6127
13.234 1.95309 15.0155
12.7742 8.67197 25.7298
6.49363 3.32362 28.3951
10.3944 5.52628 13.9351
6.50407 5.20387 34.0833
8.50899 8.18987 19.4024
6.59393 4.87444 19.1402
7.58802 4.88001 13.4679
4.40411 4.41078 20.4403
8.89602 7.606 14.4942
6.68193 6.50987 23.0547
8.43751 4.89159 14.4874
8.16182 2.97433 22.9078
9.45003 5.83882 28.1045
7.60987 5.88273 15.7385
5.63679 10.4786 36.5351
10.5819 4.37898 15.5726
11.3089 14.8988 50.2567
9.49765 5.84195 30.4519
6.38344 2.51932 9.28526
7.85451 3.16358 22.4511
3.39035 3.89134 12.5046
7.86055 3.85034 14.9837
7.77688 4.00864 7.78149
7.66118 1.38227 17.7261
6.51765 4.67181 7.94872
6.52963 3.00846 21.5935
5.35324 6.9981 35.1141
10.344 12.5404 30.6614
10.6274 6.46219 38.133
11.2213 5.38764 16.8217
7.77501 3.00356 15.1076
7.97889 4.93327 12.4011
8.76051 3.57666 5.74775
4.94905 1.08036 14.0442
6.24779 0.828673 8.45348
8.47737 7.07528 26.0548
5.33487 2.78777 22.0801
6.12595 6.3976 8.27137
7.99017 3.7349 8.19187
8.96405 3.6059 15.9216
6.55962 2.55912 10.5293
5.73346 2.7515 8.10829
5.31723 2.46287 20.2469
9.7361 1.95969 13.0285
7.68982 4.20083 18.9718
6.73568 5.07795 11.6936
9.30775 4.45069 30.6107
8.11915 9.94514 21.9996
5.59342 3.92688 23.5575
5.6248 4.50477 6.25673
7.40297 4.53388 17.5804
10.3157 2.14424 19.2015
11.1957 4.29524 7.5491
9.23532 3.44727 24.1645
7.39536 4.18624 20.483
8.73463 3.72212 23.9418
10.1773 8.55164 13.8657
5.56473 3.089 13.2647
7.03388 2.64477 27.5138
12.1544 3.79202 21.2477
9.788 4.60808 9.43415
9.73128 3.98861 10.1846
5.94455 4.32335 16.8534
8.4243 1.81306 11.8475
5.70811 2.85163 12.2453
7.24385 5.53561 8.10311
7.04739 1.69644 16.1055
8.55093 2.92193 18.2977
6.31116 6.74844 27.6348
8.5868 1.87111 15.3379
7.5456 8.28307 29.8642
10.9087 4.53704 6.67396
8.95332 3.05495 16.0661
7.25834 5.24254 11.3026
5.89053 4.00186 8.65711
7.92307 3.35766 20.8215
5.5301 3.5709 9.79712
5.81256 3.05228 10.396
8.9554 1.14833 14.8514
8.4612 5.77575 25.5517
11.8964 6.32551 14.939
5.6052 4.05753 30.3473
5.89603 7.69706 15.4734
5.86366 3.28851 16.0344
9.64652 2.35959 6.95561
6.29938 2.19691 6.98545
7.38639 5.32686 16.7848
6.26789 3.04002 23.5153
4.7165 5.07552 14.8929
7.69177 5.88828 22.205
6.98224 5.37981 20.6376
8.4184 4.43052 25.3428
8.64867 6.17438 13.7867
4.21118 1.01604 12.5531
5.19088 2.12492 13.9507
7.29755 3.10185 17.4818
5.3833 7.53482 10.4419
6.49947 1.51697 20.8404
7.30549 6.40299 18.0687
8.37859 3.34124 11.9386
6.57424 3.49881 20.4428
10.7467 4.61632 18.4778
7.99472 2.80388 9.10533
6.70618 2.42263 11.4998
8.36106 3.96214 21.0414
9.16729 5.61401 16.5834
7.74184 7.06997 42.9078
3.23012 0 0