# pn-170911/CsIIA-25-AMC2-1280-1959.psd
# Power spectrum* (dif=0,1,2) (really just |FT|^2)
# NOTE: only the first half! (symmetric)
# weeks: 1280-1959
# 15 clock-days, 6 excluded
# PSD: 1441
21414 1.40156 0.0306669
1.60204e+06 28.3556 0.0253955
4.81936e+06 93.7985 0.0249824
2.14305e+06 89.6824 0.0242
702638 54.7393 0.0299464
673750 65.3575 0.0288966
529891 84.2098 0.0423944
360427 70.726 0.0318109
220930 62.5173 0.0341221
142002 44.6935 0.0305142
167093 74.8455 0.0634478
170091 60.5235 0.0547438
115751 54.5692 0.0800906
100793 62.5825 0.0635876
97743.3 77.688 0.100718
79740 72.9467 0.109113
63894.7 77.8075 0.13689
60579.1 75.5941 0.159421
44846.3 50.0255 0.117991
36552.7 50.5908 0.105604
38176.8 51.9151 0.159141
19793.5 58.0021 0.124476
23558.2 39.6548 0.108963
26384.7 72.8118 0.227996
28610.6 64.0552 0.173305
17772.7 41.2527 0.165386
19243.5 53.7384 0.186761
20805.2 61.8642 0.286747
16313.4 55.7326 0.192864
12853.8 50.2111 0.190394
10066.2 34.3561 0.135474
10244.8 54.5633 0.252839
7887.85 38.0047 0.220486
13254.9 70.4826 0.401027
14321.4 65.0797 0.423612
12117.6 53.4655 0.396609
4658.67 34.3403 0.248891
8863.03 35.0421 0.210609
10010.3 53.8177 0.363444
7519.3 38.3687 0.319408
9104.94 57.5489 0.422758
6311.43 44.7726 0.402608
6644.44 42.9242 0.399989
15828.9 112.936 1.01735
10524.4 71.4339 0.737265
7041.62 64.6155 0.65052
5107.34 36.6898 0.38594
5149.13 50.8286 0.528687
4775.82 37.6002 0.450028
9589.11 69.7339 0.781835
5557.88 47.4916 0.618114
4843.17 55.4496 0.713925
3339.99 42.132 0.570276
5563.26 45.3618 0.644013
6465.52 67.729 1.00347
6791.3 82.0929 1.2812
5869.48 86.4413 1.29822
4305.6 66.0334 0.975055
4920.93 58.8478 0.975557
4452.36 70.8855 1.13205
2981.19 45.4057 0.715883
3576.45 35.537 0.622554
4360.16 65.547 1.313
3140.5 42.5093 0.873612
3453.51 49.1491 0.990244
3772.18 53.9884 1.09171
3036.78 50.5077 1.2144
2329.55 30.6363 0.637737
3095.48 54.329 1.15289
3562.37 65.1511 1.45622
2216.02 44.2643 0.964103
2524 56.578 1.35025
2090.99 37.9176 0.971806
3177.9 64.4961 1.62104
2301.42 55.5685 1.39465
2932.85 61.098 1.79156
2296.75 54.3525 1.46839
1199.16 38.6582 1.21668
2502.7 46.6392 1.38001
1931.7 51.0422 1.54265
3060.08 76.3037 2.40055
1876.98 66.5401 2.11076
1778.04 53.2483 1.73449
2501.03 59.1114 1.94955
2999.92 95.7546 3.09246
2361.4 80.2407 2.63052
1652.21 55.2796 1.91289
2059.13 58.7523 2.14161
1969.67 47.2904 1.72747
2293.9 76.001 2.97269
2677.48 66.854 2.63444
1297.32 36.4873 1.46633
995.325 33.3495 1.30018
1401.45 53.2003 2.35018
2279.07 66.5756 2.89367
2073.71 72.0117 3.04123
1138.44 43.3856 1.78055
1279.45 60.506 2.82058
1210.77 36.9984 1.61202
1760.95 64.425 2.91822
1088.92 46.5517 2.35007
1056.31 49.7786 2.65109
931.752 29.5702 1.42828
1159.17 46.7147 2.16851
1088.7 52.5234 2.79947
1666.79 67.9469 3.44782
1324.8 41.2789 2.29306
1399.38 75.1466 3.912
1474.3 57.5125 3.17402
963.323 51.3071 2.87344
1596.58 70.1757 3.91483
1349.65 64.9502 3.83885
1335.85 67.8451 3.88055
802.851 34.4755 2.17014
849.615 63.3343 3.99179
1017.83 42.4689 2.78368
1114.17 52.3553 3.19433
837.807 35.665 2.39436
1003.68 52.0938 3.492
1433.48 82.3439 5.56398
1252.33 66.1371 4.47544
1197.74 63.9551 4.35664
825.846 37.9356 2.9537
1073.41 65.7166 4.34257
835.346 46.2449 3.6829
1183.22 64.0105 4.72918
816 57.4566 4.2428
625.923 38.3969 2.81797
612 46.5965 3.6198
645.936 60.0222 4.58088
509.626 38.1893 2.98234
680.668 39.8297 3.09862
823.093 43.6267 3.52272
689.684 48.2329 4.34238
713.257 50.7606 4.13898
458.948 36.0373 3.01547
1128.46 102.569 9.17133
987.4 63.6116 5.91015
474.534 40.1236 3.45356
714.112 57.6039 5.18347
781.031 68.0361 6.47802
780.385 62.2016 5.92274
980.078 71.1549 6.80831
773.761 59.1358 5.6672
584.354 47.2734 5.10615
464.604 39.4902 3.61954
572.584 40.6205 4.1861
585.775 54.3838 5.57889
911.991 65.6336 6.73835
657.037 50.7162 5.33697
530.514 45.701 4.96468
577.823 47.0868 5.29015
769.069 65.9039 7.23353
726.482 52.8775 5.82642
469.417 57.5546 6.4932
832.761 70.1413 7.77944
622.293 62.6661 7.55434
545.508 38.4584 4.45916
455.985 32.4426 3.79451
646.439 70.7719 8.07872
433.409 45.3374 5.7899
530.59 49.6188 6.05728
642.899 58.9753 7.51278
434.703 41.4537 4.99809
579.68 56.6822 6.66377
463.255 44.649 6.05163
306.764 32.5531 4.5866
715.379 79.6027 11.0021
352.28 50.5736 6.49995
479.397 50.4195 7.07263
619.507 62.5095 8.47452
478.34 48.3953 6.34354
414.779 49.1968 6.9531
389.394 42.6511 5.96738
330.687 38.8581 5.6419
690.562 75.3014 10.5517
374.707 51.2199 7.62475
487.96 55.7406 8.13532
238.493 41.0583 5.88556
365.132 49.4095 7.19649
357.848 59.5127 9.28395
501.353 68.9018 11.1801
486.516 65.0941 10.3181
451.852 48.3554 7.9078
301.428 32.8546 4.81148
284.935 44.6518 7.35098
272.011 48.5549 8.46383
328.987 52.8488 9.45629
327.306 43.8738 6.67058
240.575 28.5457 4.79155
245.291 38.4483 6.49612
247.288 33.3545 6.34001
393.827 57.7147 9.32438
374.803 52.8175 9.57715
314.7 42.5285 7.54702
329.763 52.8582 10.0716
272.731 34.2489 5.4081
292.026 36.7945 6.57214
439.547 60.1574 10.8078
366.713 59.8163 11.6532
314.255 42.3387 7.49652
254.201 42.8204 8.46025
305.182 30.9362 5.63851
198.314 18.5004 3.7235
362.195 50.8052 9.42156
312.94 45.4639 9.04887
417.022 67.1672 13.001
262.152 33.0004 7.36102
268.228 31.5546 6.79544
280.889 47.5217 9.46391
492.28 84.8107 18.6537
251.9 46.8882 8.48313
290.271 47.3644 10.2051
231.71 39.3467 8.60361
213.863 43.1434 9.30633
488.026 82.0845 17.2697
260.13 38.0141 8.329
255.704 38.3206 7.99244
252.932 39.5067 8.44508
254.589 40.022 9.99534
200.693 41.6262 8.4577
222.299 35.3524 8.07509
363.986 68.8469 16.7996
111.383 29.3207 5.88554
209.218 42.2348 10.7244
389.677 60.414 12.9471
311.525 65.8277 15.1614
191.408 49.6412 11.9901
174.49 31.1636 8.17837
193.734 40.1371 9.07468
323.148 75.8941 19.6459
255.427 50.485 12.2888
190.442 36.0379 9.37585
189.012 32.7118 7.75153
139.679 38.1137 11.2647
324.663 76.8573 19.9709
223.724 40.6406 9.35495
314.975 62.7144 16.3103
207.441 35.1848 10.3915
251.428 46.4189 11.8369
192.733 49.531 12.4561
261.014 49.2309 12.5737
195.195 58.3171 16.188
218.111 51.0717 15.1672
216.228 48.7483 13.9934
272.918 56.5392 15.443
127.378 32.8484 9.75364
186.852 55.7056 15.8746
181.707 36.2323 10.0561
149.782 43.5388 13.3639
179.423 38.639 11.2832
150.706 23.2082 7.23727
191.867 45.1842 13.1943
167.302 41.9598 13.0364
284.895 62.5016 18.9145
410.219 72.6309 20.9761
317.061 74.8196 21.991
130.825 35.4404 10.3065
96.4336 21.0634 7.88195
161.701 48.3778 14.2445
110.673 33.0229 11.9383
169.057 35.112 11.28
151.383 25.3094 7.82786
177.551 35.285 11.8066
129.443 32.7609 10.1708
181.207 55.3733 17.1414
156.324 32.8334 11.2661
167.319 42.9643 14.2658
133.064 34.0948 12.7871
152.357 48.2453 16.8069
176.959 35.9325 11.9714
176.745 55.2755 17.6608
120.032 40.8886 13.1593
84.8981 24.758 8.91518
189.874 59.4549 19.6317
83.2517 26.3833 9.98295
137.477 41.1415 15.1421
193.264 38.3051 13.3687
126.362 46.115 16.9522
196.096 63.764 23.2203
109.775 29.8358 10.6405
83.3283 18.0417 6.06845
135.575 32.3118 12.2758
242.98 56.4479 19.5428
152.149 33.6673 11.998
141.93 42.9558 16.7157
167.233 42.9609 17.1731
96.1963 20.6494 7.42692
124.151 45.1133 17.6063
96.8944 44.9236 17.9148
165.579 43.0602 17.4733
174.176 42.2264 17.1435
129.559 48.9439 18.3949
138.719 38.3499 15.1746
113.104 27.9407 11.7746
152.12 39.2816 16.1049
90.373 27.7033 11.5394
148.775 47.3094 17.7367
124.305 35.9638 13.2881
133.929 59.8063 27.6018
246.437 82.9439 29.9229
144.499 42.7608 18.8386
121.724 39.6078 15.6908
115.983 41.8223 19.4388
135.598 41.0977 16.1351
119.691 39.0904 17.9076
141.302 64.6738 26.4056
108.023 43.3253 20.0906
127.923 56.2196 24.435
139.477 49.8261 23.0563
99.4953 31.7797 13.8409
112.797 30.9898 13.5473
141.047 50.0036 22.8805
124.716 56.4095 24.6882
151.001 53.2191 24.9724
102.022 41.3446 17.2047
122.888 49.0129 21.1091
92.2711 29.3373 13.788
94.0051 37.7241 18.1413
77.5939 24.167 10.9225
97.5417 38.6981 16.6214
55.9282 31.0009 14.6028
123.871 28.5692 12.0566
105.166 45.2573 23.3344
75.6832 33.3935 19.1742
142.123 54.7555 24.7178
176.521 61.6048 26.4264
98.0422 37.5013 20.5168
145.126 45.6729 21.3147
89.3344 34.0532 17.9082
117.817 43.9466 23.4443
162.989 54.1896 24.6638
96.3832 56.4543 31.9466
152.471 47.6748 21.8103
76.1456 28.1621 13.1874
134.107 44.0158 23.3944
105.444 43.0199 23.246
96.1479 33.433 16.6837
94.632 38.3957 18.4548
75.252 34.4529 22.5563
126.076 43.3967 19.3024
101.179 45.8591 26.929
129.108 45.0898 24.1378
74.4982 40.3327 23.9048
71.7039 24.9577 12.8147
105.108 42.232 20.5114
77.7452 25.0998 13.3135
100.386 43.0178 23.9162
71.2427 32.1297 18.4289
102.417 39.8814 22.8591
65.9866 25.3453 12.6025
110.397 46.3414 24.1124
145.524 48.7804 25.0171
82.0972 35.5394 20.9409
80.0717 30.975 15.7507
45.399 21.5257 14.0296
58.3568 24.6825 13.7906
70.4821 24.6914 14.2063
95.1165 41.0893 23.7372
113.121 47.2775 27.9712
79.4312 26.2975 14.7013
58.1098 27.274 15.2638
87.4281 38.5419 21.6962
70.4145 26.0616 16.5189
69.5777 28.0405 17.8524
78.5037 39.9831 25.3152
63.2255 25.299 18.2649
120.973 51.6239 29.0014
56.1049 34.5782 20.5126
74.7623 35.8948 25.5055
104.922 51.5816 29.3788
62.3091 29.4325 21.1981
74.7852 31.2095 19.4057
104.836 50.2772 29.0962
68.066 37.1725 23.7
51.4317 38.6761 25.3604
93.8303 36.4218 18.5273
73.9174 28.8235 18.0237
73.7582 41.2909 27.556
58.5808 25.087 15.9088
70.1195 38.2548 29.2999
65.3583 46.9552 26.5451
91.0498 54.6184 37.9018
88.0921 44.0605 27.8698
60.0263 25.4445 18.1328
54.2113 31.7645 20.1989
50.7986 31.8846 21.6633
70.7676 24.8856 18.0588
72.5606 29.6632 21.7547
56.9442 24.6105 15.8056
70.3849 35.6991 21.6718
41.8286 23.2863 19.6176
75.2195 40.2634 26.4935
41.7847 18.6616 12.8814
75.8833 31.8392 21.9493
50.6193 22.4725 15.1519
104.135 59.2176 36.1564
36.9982 32.8139 29.0254
106.116 43.8813 24.9984
48.2849 25.0642 21.2986
65.8429 33.6246 21.7101
56.5069 35.3328 26.2339
57.8677 37.2394 25.4799
27.7256 22.6963 16.9524
46.2877 23.7722 19.5608
59.7253 34.204 22.1208
34.8936 24.4469 20.5566
52.9274 26.2003 18.7327
51.9983 32.0854 26.4214
97.4681 44.4142 31.4081
49.3268 26.7469 21.4214
43.5426 33.915 25.7102
57.0398 20.5645 13.1084
41.5297 21.678 16.0348
55.5127 34.609 31.7658
72.9392 31.436 18.0705
38.2499 25.3184 22.7956
71.0918 34.1099 24.3468
59.3254 33.5067 25.8588
45.706 19.8624 17.1513
40.0344 31.1707 25.0972
70.1039 44.4619 33.7418
40.2531 21.0488 21.3396
72.2691 36.2442 28.1932
37.0189 27.8965 27.613
79.2636 40.8433 30.0288
47.4412 24.8151 19.9832
75.3348 41.2792 35.1123
38.8207 29.7735 25.6854
61.8157 49.0593 38.8113
64.915 34.2594 26.8806
53.5444 35.4011 28.5934
71.7843 43.7715 39.3475
70.8319 36.6473 24.0843
45.4174 23.2143 19.7841
33.092 25.3067 24.2199
62.9512 37.2258 31.7617
47.2161 22.6824 18.6828
96.4618 42.2981 29.985
41.5405 28.9443 28.4892
44.6416 31.3571 24.7541
47.9931 30.6843 25.7225
45.1124 26.6869 23.5133
33.6842 15.7731 14.2558
64.5025 35.8968 32.3305
37.3863 23.7833 20.4502
66.2835 34.4892 29.9816
47.9102 32.2861 35.1413
45.0792 27.4696 20.4613
65.9442 39.88 32.879
26.5206 21.0741 22.148
29.9216 16.7743 17.6266
69.3509 43.8834 37.2409
39.0316 27.9267 23.8223
45.7955 30.9684 28.266
36.4839 31.9955 33.4061
82.4229 48.1035 43.1001
39.5436 24.7232 26.2127
48.6336 28.8877 21.6773
53.3 28.5031 26.7486
37.0406 26.5326 23.9115
50.1524 33.164 29.0169
50.917 29.2275 30.4553
31.9641 19.4913 14.4356
48.2959 27.529 23.6142
43.9601 34.9657 32.645
34.9271 18.7679 18.177
43.8838 30.599 32.9314
29.815 23.3026 24.2726
41.2414 21.6983 15.7865
42.9813 29.3022 28.949
41.941 19.0198 18.4855
41.4865 27.8237 24.5567
29.507 26.2757 29.6159
45.4144 21.3532 18.599
35.8595 23.2202 22.9523
49.4621 34.0324 32.2097
56.5503 30.074 29.4359
56.9314 38.218 36.1232
41.563 25.3963 22.3041
51.7782 33.4507 32.1238
27.3673 18.4055 16.5357
51.2492 45.7796 49.1626
30.8167 26.4244 26.0248
38.7634 37.7525 39.9828
31.3199 27.9356 26.1687
34.8122 21.8116 25.1952
35.7808 16.7628 17.9963
35.7509 25.3908 20.7588
39.624 31.1886 33.0883
40.3269 27.6561 26.1182
21.5563 20.7182 27.0081
39.2115 22.8909 22.175
35.0837 29.3491 31.3583
29.3921 24.0883 26.6292
58.4799 35.5195 34.0305
19.3092 14.3102 19.1887
42.9917 25.7989 27.1727
54.2868 38.7903 37.2982
32.9127 23.287 22.2856
31.2877 17.7231 23.5922
48.7787 35.5257 33.877
50.4112 45.4439 53.9364
42.3059 36.0303 30.173
42.0806 24.9734 31.4768
41.8077 37.6075 43.7567
33.1568 23.3283 21.4282
30.1595 24.9958 30.8712
21.2139 28.3885 31.881
27.1016 18.9687 17.5306
29.3256 23.3607 22.976
29.7246 27.1423 36.1784
39.9188 20.0214 14.7837
33.4652 24.026 31.2175
30.3888 26.3145 23.5452
22.2428 23.3072 26.9773
35.7958 22.5425 22.4895
34.0138 29.3479 30.0841
45.6956 34.1459 45.0718
37.1013 35.9497 40.8911
26.6173 27.3769 27.7212
18.1202 26.026 36.9725
29.8639 23.3163 22.8166
20.7615 24.459 25.8795
14.673 20.2095 29.7189
29.3781 23.601 23.7125
28.9536 26.4509 36.7378
48.5383 35.1934 40.4531
37.2398 26.8397 28.571
28.7768 24.167 29.7353
12.0829 23.2917 28.4951
32.7078 16.1917 20.2873
24.1664 22.7291 26.4556
28.7194 25.7271 32.7011
32.7893 29.1592 34.1894
34.2457 26.2909 29.9262
48.2896 38.5642 47.846
26.7402 18.9289 26.0092
16.4621 17.1375 19.1558
18.1142 14.8065 24.6393
30.4671 18.9035 20.5264
29.1027 24.8571 37.0167
29.4134 17.7037 20.2521
28.2264 36.7906 49.1828
26.5035 28.8303 36.6054
30.7182 35.6643 44.3171
35.0341 16.743 17.2873
21.9036 28.057 37.9114
28.3534 21.4848 28.7063
32.6474 25.7271 37.343
41.8366 27.4582 28.075
37.1847 24.1666 27.9862
18.0027 21.4216 26.8117
22.301 14.2467 18.8746
17.7484 20.4741 31.1322
25.3424 21.5711 24.5147
17.5871 15.7053 19.7293
27.9826 22.1683 27.574
21.6188 11.6236 15.9934
15.1852 15.9376 18.1499
30.526 21.7475 29.2573
21.2092 23.5448 34.9979
33.1374 21.7299 32.1237
26.9487 27.1755 41.8789
25.621 26.055 33.5795
38.9023 19.4568 22.8985
24.8979 22.0514 31.012
30.059 21.4169 24.9139
30.674 24.8953 34.4366
24.0941 30.6858 36.3524
30.8203 27.1194 40.955
22.6446 15.5714 18.7197
31.1823 33.2622 45.7739
24.9715 19.6593 28.7332
24.1648 20.8049 23.4395
19.3111 13.7151 24.8426
34.1181 28.1078 32.3597
23.9522 21.0324 36.7192
22.039 25.3548 28.8648
23.2049 24.0811 33.0806
17.7802 18.1636 26.8568
22.723 13.788 20.8874
27.503 20.9769 25.9162
21.8078 24.2329 38.197
22.2823 17.5187 28.1972
21.5193 14.5403 22.7127
19.5343 16.2415 25.7245
29.7866 23.4211 34.3143
31.4315 34.4534 46.4696
21.0097 15.0173 19.1064
18.3655 21.0595 30.2457
24.7002 27.4831 33.3734
16.6794 21.8398 38.548
18.7282 11.8585 16.9446
14.1667 9.55466 18.181
26.0559 27.9504 45.9503
31.3307 24.1736 28.7407
26.4037 25.8157 36.4068
24.1948 20.8778 32.9293
25.1026 30.6164 45.4346
27.5907 19.265 29.75
17.9759 13.7774 20.4352
24.1965 20.3357 29.8742
22.4277 20.0469 29.2636
25.8032 25.2137 34.4103
15.0257 26.1309 38.6003
24.2407 15.2058 26.6253
29.3235 21.6517 28.4489
28.0241 29.8466 43.9473
24.9644 28.9568 46.8036
17.9897 17.4439 24.3526
22.7309 20.1576 24.8638
21.8266 26.5733 47.6361
28.7591 35.1058 40.6147
15.7797 22.8079 36.7599
23.2946 15.1194 27.0598
19.6466 17.008 29.7978
26.0023 18.5551 24.6542
18.3575 20.5297 30.3216
25.546 21.5912 34.1122
22.1946 17.73 24.8014
16.3908 20.5646 41.5019
25.4153 18.7695 33.1762
27.2297 22.9737 29.0752
22.6713 16.8779 23.8531
19.5795 16.5341 30.7548
20.5242 19.5938 33.6281
34.5025 32.4694 49.0729
14.1851 23.2058 34.8134
20.9502 17.1593 28.8973
19.4563 19.6273 30.2897
24.926 21.015 29.0074
16.8467 16.0222 28.8655
19.0371 23.4748 33.3484
17.1372 16.5333 25.9403
12.7508 13.7116 24.7044
22.8129 26.4363 45.0387
15.5547 16.2685 33.7271
24.0699 20.7927 24.4158
16.6197 15.9756 23.1496
22.1405 32.7058 49.6294
18.2458 22.1174 34.7194
12.0869 21.0041 39.0471
22.9737 22.545 30.1622
16.5536 26.0224 52.2408
18.5899 16.5739 28.7153
14.0034 20.9663 37.9485
22.3041 22.233 41.6813
21.1107 17.3202 35.0533
23.7732 18.8735 34.1418
25.1234 22.6862 34.4755
21.1168 23.7011 34.2879
15.6529 17.5366 36.0691
23.7096 26.4057 39.9955
19.344 15.9297 32.1167
19.021 22.2939 34.0014
16.8672 12.8748 29.5366
22.9619 26.3316 34.6759
19.9629 13.8363 21.8509
15.259 16.9332 31.1509
17.8311 25.7445 41.1482
20.1892 23.3941 44.9683
17.1655 13.1375 24.2075
19.2726 19.1143 37.2489
17.0196 22.6562 34.1855
18.5526 18.2686 39.0753
14.4175 14.0155 26.0162
15.5935 14.3178 28.9986
17.522 19.3092 35.1735
18.6384 13.5221 22.8791
18.4402 14.2364 24.7242
19.0187 24.9721 41.3587
15.8974 17.1593 31.8569
14.4269 15.3657 25.107
10.8404 15.7443 30.4102
14.6328 18.3567 40.7007
19.4064 14.635 23.7492
13.5451 11.6135 20.2844
14.6609 16.0466 30.3331
16.353 18.9076 27.4899
12.9815 15.8214 31.2513
13.1751 13.5224 27.4833
14.0314 13.631 29.587
21.4533 18.9662 28.3732
16.822 22.8369 35.471
13.2627 16.0271 32.1337
20.9262 25.6194 54.0289
18.206 17.1364 29.9207
13.801 9.48924 15.6805
11.3494 17.2275 30.2996
19.2195 22.6935 49.9502
17.4375 18.422 29.3486
13.5838 18.5842 26.9732
14.627 18.0474 35.2894
8.90268 9.80372 25.7689
9.63244 18.2797 41.1628
15.8921 13.143 25.4379
14.7829 17.7845 32.8328
17.5404 18.7949 42.9823
10.5778 13.3878 22.9484
8.44545 13.7806 21.9094
14.4693 24.4872 40.3732
12.4744 12.9324 24.6028
16.3974 14.649 30.2244
15.5068 14.0276 31.7378
7.95332 10.3609 26.4568
22.1166 23.383 41.5839
14.9195 12.1835 35.5004
24.654 25.4203 24.1243
12.2456 20.9125 50.4361
16.0249 14.616 25.8752
10.894 11.3128 25.9955
20.5329 21.643 43.5269
21.0321 18.0612 21.6616
10.6366 15.4809 36.4236
11.9119 12.8058 36.4581
16.0201 20.8285 34.0798
19.5862 22.5228 36.2496
8.64938 8.22166 20.949
13.0104 12.6927 29.5551
17.1802 16.6913 24.4196
15.3869 21.3836 49.4796
16.4158 11.57 19.2259
15.2314 21.3913 36.4904
18.4678 23.8205 56.694
9.76048 11.7975 25.3563
15.8459 20.6242 43.416
13.6248 20.562 33.8958
10.8214 9.17596 22.198
14.699 17.5959 40.9149
9.30434 16.0554 26.5427
8.89812 13.6533 31.9335
16.2822 18.5977 38.4432
8.70162 18.0699 37.9161
17.0917 18.785 35.1271
13.8582 20.004 32.7709
10.2714 13.9633 41.1319
8.62681 11.1165 24.9318
19.0819 16.7107 26.3691
13.5319 16.5294 33.8684
9.27106 9.57128 22.7726
12.2942 17.2746 27.9338
11.9908 15.6465 41.0806
15.3213 10.6207 18.7943
12.4558 15.479 38.7706
17.8575 25.118 40.9037
10.6998 13.7304 40.4447
12.0786 15.0688 34.5078
9.9556 23.873 49.0631
12.6617 11.9443 26.0501
13.8594 12.1474 34.446
15.3682 26.7734 47.3007
9.42401 15.4812 36.1528
15.437 19.7424 37.8249
11.4749 15.7414 29.8744
8.07838 7.51023 22.3817
6.63868 10.4951 20.0815
9.64474 14.9293 40.9679
11.0604 12.5216 25.504
12.1033 19.3054 36.5595
11.1486 18.3608 40.5568
14.058 16.0697 38.5417
8.95073 17.6776 32.9523
13.774 15.6028 36.5299
11.2502 14.8244 32.4268
11.7767 11.3696 30.8868
13.7067 17.5878 35.0646
13.2024 12.9978 29.4681
15.2304 17.6478 32.9516
8.51226 16.6276 35.4447
10.7663 12.4448 32.9912
13.1132 10.4464 29.7862
18.5895 21.5883 36.1003
7.12024 10.0085 26.5144
10.8896 13.1308 29.9683
9.48381 11.6359 28.9997
11.2022 19.2687 40.9254
12.3052 20.3932 32.841
8.83176 11.6488 30.4787
7.8084 11.9359 27.9705
8.56985 10.9942 28.4935
11.9689 15.4681 37.3831
13.204 9.55399 18.5912
12.8095 20.2078 46.3188
11.3203 15.2508 32.8588
11.4884 15.2827 38.4194
9.82454 10.8788 27.7567
15.6471 14.7843 32.604
14.764 17.6776 40.0056
8.18193 11.4767 32.8689
12.289 15.2925 30.4259
7.95665 11.2273 26.75
12.3893 12.8104 23.0234
8.8875 7.04526 15.0545
6.95931 9.89268 36.5478
13.2199 19.7073 35.6418
10.2505 11.9768 24.3748
8.56242 16.0788 39.2861
12.2561 16.1605 44.3319
12.6692 8.9317 21.4746
14.2412 15.3108 28.4559
11.6249 12.4911 29.6292
9.81089 16.9845 45.5363
12.816 11.1594 25.4134
11.1712 14.8503 43.2227
15.292 17.8657 33.7722
10.9443 14.8648 39.6268
8.37449 10.9635 22.7564
5.49895 12.2763 25.4886
9.65633 10.1116 25.3372
10.6059 17.3656 41.1043
13.1243 11.565 24.8291
10.7353 12.304 26.0742
9.05618 6.87986 17.4651
6.22802 10.1701 30.8121
12.9359 9.15081 24.5264
10.3965 12.3671 24.8757
11.452 12.345 23.4419
11.0928 16.2438 38.3173
10.0977 15.4471 38.654
8.03248 10.7061 25.9204
12.2424 13.1203 28.7451
7.65442 13.7869 39.6611
8.64056 9.12499 25.9137
10.7907 14.2163 30.0681
10.4031 13.0956 27.7996
7.44039 8.60503 28.94
13.6244 20.4305 44.2813
10.7372 10.0753 31.8406
10.1874 10.8299 36.6423
8.85305 8.89036 22.2936
9.04421 14.0253 28.2039
7.7133 13.0873 36.4114
12.7924 14.5765 24.5555
6.48349 11.8442 32.797
9.86864 11.5508 25.7127
10.1888 10.467 31.3435
9.63234 16.0811 35.8349
8.73132 11.155 31.4661
10.6143 13.6701 39.0018
12.1118 12.9833 28.8873
10.7977 10.1232 22.7438
8.63434 13.4441 35.9278
9.42975 12.025 24.8112
5.12057 9.27555 23.082
12.5004 10.8073 30.19
7.27154 13.053 29.0607
7.95223 14.1519 41.8417
11.2748 10.0636 26.8537
7.83921 8.48879 18.5921
7.83265 8.08029 17.5901
6.45491 13.6413 36.0908
9.71976 11.5663 32.1211
9.59705 8.91343 20.9314
8.10388 12.1381 36.0661
9.45576 15.4876 36.136
8.01133 8.79427 30.3103
10.0024 12.3197 30.0395
11.1501 6.43542 15.0239
11.4331 10.3959 26.2999
9.70318 13.8884 34.0929
5.78677 7.37154 16.7913
5.69087 8.24688 25.6726
9.25921 13.0669 39.6923
8.20445 14.0178 25.9811
8.44639 8.10979 28.8955
11.3867 9.47697 21.1684
7.51534 10.3312 24.6287
7.87097 12.0321 36.6301
8.05132 12.2568 29.8894
6.12072 9.04797 22.1303
5.3091 3.89381 15.9281
9.8004 14.7755 40.6033
12.6355 16.2783 36.2382
8.67183 12.2389 32.6327
8.83435 12.0207 38.6349
5.75497 11.951 29.6963
9.19827 10.9459 28.8841
11.037 12.2371 38.8734
8.53938 10.4872 27.6691
7.52046 9.40793 30.5756
6.38041 9.93057 19.943
7.12415 7.0111 26.3427
9.05883 12.191 28.4983
6.14394 9.11755 27.722
6.61557 11.7664 24.8981
7.28788 7.51607 22.3442
7.12782 15.718 40.7392
11.3089 15.7946 35.5842
8.68139 11.5074 37.5778
10.6029 10.7338 26.4334
8.30254 9.53475 25.3909
8.14717 12.8774 37.7317
8.80906 13.4208 35.2364
5.29789 4.90259 20.788
7.13465 12.4711 26.6289
9.01664 10.7388 26.013
7.49956 11.8804 36.5577
10.1186 12.5767 32.6881
5.54755 8.09624 29.9897
9.9434 16.1292 38.4126
7.35971 9.95473 36.8585
7.77538 13.5741 34.6865
8.10506 13.2515 31.2772
9.30679 8.59539 23.5647
7.97588 12.0872 33.4615
6.61521 10.559 30.8279
8.32606 8.02799 21.0965
8.82897 12.7731 40.615
8.4209 10.4164 23.0742
8.2304 14.1769 35.7367
7.04292 8.89315 27.296
6.6304 14.3278 40.5649
9.82241 13.0628 24.3002
6.75904 9.61653 27.3992
8.84177 10.4177 33.8481
7.56448 9.49727 20.9703
5.56065 5.92157 20.2546
10.2123 10.819 24.9198
7.35244 11.7453 36.3695
8.42962 6.91536 18.3108
5.37423 9.62937 27.3136
7.72321 11.5193 35.8319
4.56894 7.28872 26.7027
10.0404 12.3685 42.5764
7.69724 7.16013 21.5787
9.42937 10.6735 32.6272
6.25277 9.29705 24.6369
6.47736 12.0082 26.9581
7.8011 6.43716 21.3938
4.56172 5.59653 16.0573
5.59738 9.33378 35.7093
8.57124 12.4887 34.2077
8.8148 8.14559 21.3622
8.65013 10.3717 24.5301
7.07726 7.44654 26.9573
5.66311 8.12988 37.9249
11.3212 8.4155 17.5309
7.72771 13.3753 39.7393
7.64666 7.50931 27.3734
6.21302 8.00706 17.2717
6.31734 6.07507 13.5121
6.64532 13.7954 42.9777
8.37739 12.7895 28.5483
6.24228 5.01874 26.9994
11.6207 8.48268 18.5332
9.37474 11.7111 28.4922
6.39153 9.63417 23.6564
3.45719 5.46068 23.5873
5.7817 8.03972 21.2236
4.94265 10.2279 43.4408
10.0515 12.4912 26.3933
6.42362 9.82803 29.7093
9.65511 18.5142 48.4705
9.04281 14.43 42.4166
8.76839 8.56574 29.0394
7.10591 9.03511 29.2679
8.853 9.19636 28.2874
5.76443 6.88402 17.73
8.66224 10.1084 27.7123
7.06092 6.9723 22.0768
4.74495 6.89968 26.5386
6.03677 6.63522 19.538
7.51224 6.22429 20.9078
5.74261 8.3536 29.9973
5.30358 10.1126 30.8998
8.9016 6.02855 16.5594
7.60144 9.59438 23.0743
3.88662 5.61298 22.4871
7.34502 9.64581 26.884
6.19586 6.84256 24.6353
7.68735 14.6396 39.5667
5.6597 4.35538 16.677
4.63117 10.1086 30.8964
9.5279 8.69513 27.1201
6.43776 7.15795 23.2584
7.09561 8.35465 25.9989
6.47261 8.30765 26.5087
8.42475 10.4655 26.4175
6.41269 6.59954 19.852
7.58029 7.48062 22.215
6.16328 6.81226 26.4037
6.05736 9.01251 26.3696
7.53374 4.68006 15.8321
4.80501 10.6386 31.0247
7.7693 7.99892 32.5999
10.9401 17.4043 54.5845
7.59168 16.2338 43.3391
7.42091 10.4569 35.8633
6.93523 10.2726 24.0439
6.12344 9.84025 28.4344
5.36571 8.24797 29.0229
9.27768 14.3744 36.6454
4.94347 8.88326 28.769
7.77417 8.90881 31.378
5.68821 8.59916 22.1583
6.36523 10.0378 28.4832
6.20268 6.36655 25.0374
5.07533 10.0144 24.4026
7.05653 6.6471 26.5175
4.18807 6.86553 25.0429
4.9335 9.71257 27.5053
8.60023 7.28575 22.2188
8.16212 15.9093 35.7185
3.59285 7.41547 39.3437
5.82059 6.64866 24.5104
7.01298 7.70954 22.6744
6.23113 8.89493 30.9498
7.54391 7.34031 23.7247
4.78252 8.25134 21.8214
4.28563 6.44073 22.6769
5.6901 9.31931 27.514
6.30625 6.04136 15.2397
4.25765 6.16934 25.1031
7.06323 5.77869 22.9973
6.10129 9.68443 25.0805
6.58687 7.81216 28.6205
6.49227 8.07459 24.8272
5.09931 10.1289 35.1317
7.60241 6.18417 26.8954
8.63046 14.2118 32.619
6.94824 5.51937 24.4024
6.85065 8.70141 26.4766
5.91778 6.11468 21.0964
7.15909 9.94383 29.7476
4.07905 9.97467 30.5451
5.36652 7.03892 21.7263
3.68446 5.2989 22.2831
6.85488 7.69527 32.7884
6.47518 6.82491 26.2688
6.19444 7.94681 25.5238
7.1797 10.9897 15.788
4.94344 5.85424 20.1153
4.93797 5.79267 24.0669
5.28288 4.97687 22.2946
4.50059 10.4628 26.6288
7.20251 7.91317 24.6773
4.94716 7.5684 21.5834
5.27636 10.5101 37.6615
8.54958 8.50242 30.7311
3.98319 7.6057 22.6404
7.74725 10.3638 27.7028
5.70196 6.63893 14.5951
4.83517 5.62434 31.9466
6.63473 7.53359 22.3354
6.95776 7.21716 28.1243
5.89644 6.59597 21.6725
6.17169 7.6956 26.7069
3.68128 5.69661 15.8603
4.58143 6.15634 19.9378
6.75014 8.09994 27.006
5.33453 8.9609 27.3895
6.65929 12.2199 42.5963
7.16855 9.25348 26.4439
6.00549 7.35625 23.6678
5.92866 6.87184 28.9309
6.65452 9.82131 33.2618
4.05443 4.11268 16.7009
4.92171 8.24207 21.2168
5.31137 9.97687 34.1915
6.39195 7.78285 21.7671
5.3745 7.80453 30.8341
8.51393 9.14197 28.9448
6.31792 8.71692 34.8437
6.3016 8.68883 32.7817
6.75663 8.3012 16.9509
5.59409 3.78981 13.0582
4.25293 9.22596 25.2898
4.41767 4.18379 19.2144
6.55084 8.2116 31.8004
6.55642 7.25597 19.9707
4.05054 6.96202 30.1495
6.034 6.10554 25.5266
5.3432 9.70413 28.3573
7.04693 5.8076 21.3847
3.06558 7.21225 20.8999
5.52523 9.09759 29.4875
7.16616 5.95974 28.004
6.3814 5.59368 19.4857
7.02102 8.89182 27.172
5.64953 7.51569 16.9393
4.21174 6.03994 23.4823
5.41989 6.48152 21.5861
6.08953 6.39947 24.9643
4.1602 5.53998 14.9186
5.12057 5.23535 24.6278
7.52668 8.33088 34.5622
6.3737 8.02488 26.939
4.94257 5.1395 16.5081
4.89306 6.32375 25.425
7.14203 10.7768 32.7491
5.67092 7.13129 13.1872
4.50246 9.39233 29.8945
5.38702 6.19353 28.4833
2.6807 7.68917 41.4079
7.58111 11.3525 28.531
6.29291 7.61286 23.0524
5.48357 7.78834 23.0738
5.15173 5.55714 18.5691
4.97324 7.3943 28.1166
4.84482 4.84184 19.1872
6.2318 5.19322 24.1479
4.7508 9.93583 24.7623
5.08881 7.31 25.1429
5.344 8.55089 37.9584
4.11944 7.77143 34.6903
3.69467 13.4485 31.8554
6.39903 6.31718 26.1088
6.92306 6.89348 21.762
4.75073 5.42128 21.6132
5.06509 4.16004 22.744
3.61106 8.41639 23.853
5.956 8.34663 19.8482
5.65966 6.73676 20.8237
4.52285 7.63428 35.0666
5.36113 7.26346 22.2555
5.72006 6.66342 24.9033
6.09454 9.45587 34.6528
4.74075 5.55692 24.1295
4.7794 4.75099 19.6044
6.22615 5.90925 28.2334
3.58646 7.8351 18.9166
5.10854 5.74647 17.9912
5.56143 7.74878 31.3545
7.39645 7.02748 15.857
5.6534 9.94873 32.7229
6.6954 8.67732 31.0315
5.64156 7.06042 20.1089
4.76217 9.02927 25.5192
3.81031 7.28254 37.2425
6.72584 8.99386 30.4402
7.54426 7.49276 20.9318
4.06674 3.27291 17.4692
6.36207 5.02425 17.3776
3.8671 6.09622 24.5235
6.83309 8.38181 34.7149
6.89298 11.6528 28.7737
4.3099 8.41669 24.7978
5.29147 5.8518 24.3545
6.62125 7.17771 23.6192
5.15854 6.70654 24.9322
5.27209 4.93266 19.3693
7.09245 6.45916 30.6443
6.33041 8.91322 27.8995
4.44258 7.06236 24.4648
5.01384 8.22084 32.4673
5.12343 6.36521 23.985
4.33496 5.46999 22.7075
5.93368 6.74459 22.2907
4.08577 8.71235 23.4465
4.09598 6.8004 35.3423
7.14476 5.22062 17.2289
4.24758 6.91491 18.8727
5.64735 7.02165 25.9173
6.49512 8.10089 25.7885
5.07884 5.37553 27.2829
6.56139 8.96425 34.8468
4.457 6.66319 24.4003
4.95525 7.57348 22.1692
4.48716 6.43875 23.1302
4.75633 5.37484 17.9525
4.83666 4.61122 25.2221
4.13464 9.63521 25.5395
5.10122 5.59813 34.6011
4.86755 9.60252 18.6259
4.48584 7.56806 31.6437
5.3974 6.63406 25.0153
4.88063 6.96515 22.842
5.12674 5.35061 23.3488
5.72912 7.51916 26.0148
5.67286 6.70689 33.6052
5.46258 5.8614 18.2129
4.3697 6.94587 14.1442
3.78044 2.37561 19.2564
5.3173 6.20156 21.8164
5.30421 7.8931 28.9566
4.77473 4.99178 24.5914
3.63699 9.89424 24.5769
3.95238 6.32774 33.4208
6.18664 6.53304 21.0444
5.51129 5.69893 25.3264
5.69841 6.65758 20.0293
5.10043 5.81768 24.88
6.82593 4.90332 18.3676
5.16343 6.81545 22.7388
5.85485 6.64715 18.1882
3.99928 5.41081 31.2148
4.95324 6.52873 20.501
4.00338 5.35193 16.1872
4.30708 3.45051 19.7559
4.36461 7.35163 22.1137
4.45884 8.87851 29.2187
3.62292 5.95478 22.8987
5.91331 5.06555 23.4694
4.57144 4.81492 19.1171
2.99491 7.16979 26.7476
4.5035 7.04253 23.431
5.23536 4.541 19.5578
4.79924 5.61235 26.5899
5.61993 6.89986 21.3785
3.75698 5.15613 18.6611
4.07658 5.89318 24.6284
5.45074 4.95893 15.6695
5.03634 7.53932 25.1617
5.37647 4.73079 18.0671
5.49793 8.47346 22.1182
4.03242 5.74223 24.9733
3.53467 5.78031 34.3071
4.05073 8.37341 19.6846
5.92507 5.93954 16.3999
3.0387 5.34397 28.5542
2.48857 4.85794 24.0384
4.89244 6.62468 23.5626
5.14475 7.50389 19.8458
3.63944 7.54573 20.6287
4.28477 6.43482 21.1751
3.77849 8.31446 40.2424
5.14447 7.08378 32.8365
4.05937 7.14914 30.5759
6.33682 7.49941 19.7131
4.55779 6.17124 26.0658
4.62687 5.90319 20.0716
4.91265 7.02149 28.8718
3.43978 7.42013 18.3717
4.27016 5.31551 26.2623
4.35569 5.50505 30.3374
4.56097 6.84993 16.1219
3.39503 4.78883 28.0714
4.18012 3.4624 13.7344
4.60019 5.87164 26.6474
3.46873 7.34649 26.0654
5.08479 5.676 21.5628
5.21229 5.0576 18.1575
3.67103 9.62874 33.7452
6.17071 6.70122 24.6457
5.27736 5.13724 23.3613
5.01873 4.25443 15.581
4.4545 7.91124 25.6778
4.79563 5.18029 17.7424
5.38256 6.75409 32.8816
3.83344 7.52657 24.6444
3.96954 4.41284 14.2444
4.16838 6.86954 19.8874
4.11019 3.91083 20.472
4.25132 4.66899 23.8821
4.91804 5.63403 18.0818
2.3652 5.99021 21.9341
2.51245 6.73733 25.6472
5.2892 9.25468 19.9409
4.12912 5.67744 27.8881
5.62454 4.57563 24.1791
5.49976 4.59098 9.72202
3.62407 3.17108 12.6594
2.66494 5.15702 25.1299
5.86624 4.50362 25.897
4.9877 4.98614 15.0894
4.66711 4.21402 12.7838
3.03633 3.67068 16.7861
3.02399 4.39773 26.4299
3.79147 6.76619 23.3187
4.98793 5.82044 19.2173
3.81814 8.35675 36.7887
4.67233 5.6382 19.6426
2.61917 7.35698 30.8488
6.01268 4.76694 12.4636
3.3177 6.95263 28.5236
4.34046 5.22225 18.289
3.69456 4.3338 26.013
4.12963 6.12093 25.8116
4.99918 4.53246 15.6688
2.74021 8.17451 25.0798
4.33428 6.07565 30.3752
5.58811 7.56662 26.9947
5.09484 8.14524 23.5738
4.57897 6.90357 31.5995
4.45254 10.5585 42.8849
6.07034 8.78153 36.1259
5.68712 5.53576 14.3606
3.46772 4.35086 15.0283
4.78576 4.42965 10.042
3.18172 3.51337 19.4022
4.19908 3.2203 14.6641
4.92171 4.2504 20.7158
4.27849 6.10757 14.2609
3.52216 3.72059 21.3576
3.7037 6.22072 25.4235
3.60582 4.38188 14.4732
3.59574 6.16688 31.8529
4.99067 9.56005 27.8223
4.69485 4.54454 13.7176
3.7462 4.67908 14.7454
4.96192 3.93765 18.061
4.85174 5.6505 14.9372
3.76415 3.57263 16.1279
3.39901 2.39168 10.1364
4.40149 4.9698 26.8665
3.44691 6.96782 26.858
4.46228 6.56388 20.8974
4.6208 6.46299 25.3075
4.93096 7.11083 22.3574
3.86984 5.91689 19.9384
4.42235 6.35154 27.3352
5.35183 5.25741 22.8756
5.09331 5.26603 22.8994
4.76823 6.62574 32.1787
6.96997 5.98121 21.1595
4.60842 5.86722 24.9998
4.30838 5.47053 20.4644
5.19799 5.56526 22.0639
3.91683 5.67025 22.0946
4.91614 3.61731 18.3377
3.82914 4.57322 15.9784
5.54159 3.80232 16.6625
3.83875 6.72488 26.8487
4.98278 4.47566 16.071
4.05055 4.07795 18.7962
4.68264 5.88645 22.147
4.40154 4.01099 21.6603
4.80645 7.2036 23.1131
3.56466 6.95963 19.5557
3.26665 5.73004 24.2318
7.15797 7.75292 26.9689
4.32249 4.83969 27.7196
3.95509 5.4635 18.6034
4.7801 5.15907 19.9918
3.53372 4.83688 20.7109
3.44685 7.29955 32.2608
6.07156 7.4485 29.1174
5.22795 7.28479 27.9985
4.16572 5.76758 18.1841
3.17553 6.05035 23.2961
5.65828 5.74211 29.0604
4.8888 7.32348 14.7548
3.89822 3.46904 18.5487
3.27474 2.90094 17.4701
3.60395 5.53504 18.2363
3.81835 3.98225 25.988
5.91069 4.1944 10.5519
5.46585 6.96185 28.3392
4.33821 3.79972 19.687
4.93556 5.876 21.5125
3.95772 5.10895 15.8768
3.91418 7.11153 19.0789
3.84854 2.92939 14.257
3.83968 3.38264 20.0459
4.06059 6.58618 19.8689
3.75893 4.08603 23.8386
4.36532 7.49213 29.8151
5.52337 6.46131 26.2184
4.92209 7.01673 23.5652
4.93842 6.08835 18.9018
5.37037 4.8241 17.0881
5.07722 4.39691 24.105
3.20186 4.66285 27.1956
4.1417 6.74913 27.3415
6.05361 8.01661 26.1095
5.73931 5.99352 17.5208
3.05575 3.18222 19.6719
4.24271 7.12135 21.2521
4.41054 7.78475 27.871
4.10836 3.91869 20.2942
3.49264 4.3196 21.9572
3.43061 4.70421 20.8525
6.04402 6.51053 24.8939
3.4878 7.71247 20.7936
4.02915 4.31104 26.7871
4.01016 6.50742 26.6868
4.93875 9.69553 26.9734
4.44433 4.06847 29.5449
5.7066 7.95148 31.4221
3.1056 5.50587 21.1949
3.6206 7.05848 26.6146
4.95518 5.10441 20.8993
3.1536 7.88191 27.0671
5.42778 5.25694 24.1772
3.51577 7.65679 29.8647
4.03779 6.60726 26.307
3.40712 7.76853 24.0083
5.5027 6.67602 20.3598
4.65383 4.72533 20.6639
5.12109 6.55504 31.5545
5.77404 5.46712 31.0333
4.17916 7.91368 22.9253
5.63134 6.18885 26.4779
4.93065 4.78814 19.0732
5.21602 4.33537 19.7146
3.93156 4.43902 24.6614
3.72525 6.85674 16.4119
3.31386 4.40571 19.0515
3.2098 7.09677 25.103
5.65088 5.89413 17.7335
4.60971 5.22348 22.5034
3.73497 8.06787 46.3802
7.04834 9.91156 41.7481
4.13836 6.18389 18.2695
4.216 4.41229 10.1162
2.80519 2.29515 12.3677
3.57 6.09413 13.4136
3.80009 3.8644 19.0262
3.38559 5.11389 26.3748
4.37032 6.1234 18.5012
3.08296 6.02637 19.7207
3.70229 5.8549 24.3485
4.76146 4.04818 19.828
5.09377 3.07878 17.9648
4.25654 4.5828 34.7601
3.02163 10.0001 24.8864
4.6846 7.20506 27.7902
5.17434 5.46632 14.6555
4.43458 3.832 21.267
4.40032 5.44293 19.7327
3.43925 5.86862 27.0086
5.27598 5.83418 14.9249
3.03986 5.09244 13.2197
4.58689 2.57675 13.8416
3.92919 4.89334 23.0694
5.25334 4.10384 25.7452
4.72905 6.55916 22.0807
4.06543 5.26917 21.8388
3.72234 6.13881 23.1178
4.58167 5.68283 18.3495
4.92616 4.36736 11.4131
3.96627 3.75472 30.405
4.73695 7.05566 17.1398
4.68678 3.95095 22.4283
5.2687 6.70349 14.3872
3.48905 4.57331 18.1721
3.59269 5.9931 20.4704
4.50543 2.58753 17.4523
3.45615 4.94914 11.2239
3.95088 4.06649 27.0572
3.528 5.57559 30.0064
5.29579 7.10037 22.3433
5.1038 5.61985 16.9409
4.55315 5.33175 22.7968
4.15173 6.06317 29.5151
4.44384 6.65499 17.6118
3.47994 3.45558 15.2088
2.85364 3.0243 19.1833
4.18289 3.59477 10.9271
3.71646 0 0