# pn-170911/CsIIA-27-TWTF-1280-1959.psd
# Power spectrum* (dif=0,1,2) (really just |FT|^2)
# NOTE: only the first half! (symmetric)
# weeks: 1280-1959
# 6 clock-days, 2 excluded
# PSD: 1441
208580 6.39646 0.0200159
5.2377e+06 57.0578 0.018555
2.98562e+07 607.485 0.025402
1.68844e+06 30.7479 0.023003
1.30426e+06 89.1332 0.0356637
556093 30.1147 0.0191048
443135 61.7615 0.0228645
372928 68.1047 0.0317056
120368 31.8592 0.0204127
164748 42.7722 0.0503553
103413 32.6142 0.0211475
88753.2 61.3583 0.058754
129637 94.8911 0.0465364
92797.1 53.2201 0.0712401
74417.3 38.3319 0.039845
84203.5 76.4843 0.0690005
28437.1 31.9821 0.0840303
114049 123.306 0.103711
65999.5 72.5731 0.135624
66024.5 69.1505 0.158094
50898.3 68.0024 0.163466
33361.6 43.8633 0.0764095
18941.9 28.6851 0.0371965
9816.4 14.2469 0.0406084
41696.4 64.3734 0.227807
21541 86.5928 0.273176
33593.9 83.1093 0.308955
20631.2 56.972 0.202699
24610.2 80.6851 0.231075
16014 33.5846 0.157183
21666.4 69.6206 0.302672
11752.8 27.2974 0.155972
9857.61 38.3187 0.245798
7821.97 43.6514 0.24544
8168.96 33.1201 0.213094
5692.37 23.505 0.163554
15410 102.765 0.705232
12172.2 44.8422 0.309934
8994.48 46.729 0.35858
7819.66 34.721 0.251083
8047.88 62.4996 0.506755
10215.7 72.0427 0.633566
7620.14 55.5184 0.389727
5569.47 48.2343 0.407683
10161.5 68.2198 0.582539
9001 51.8702 0.555383
8092.33 67.593 0.673147
12348.5 75.0438 0.747147
4751.23 63.3289 0.80588
7734.7 65.9121 0.785866
5693.66 33.5962 0.355271
6893.48 40.3846 0.533813
4135.25 44.5469 0.641233
5108.9 63.4375 0.812198
3666.45 44.778 0.612892
3636.27 38.6511 0.550333
1915.78 16.837 0.277722
4432.62 66.9689 1.21554
3593.52 43.4934 0.66699
4275.88 35.8544 0.597411
3881.67 36.3848 0.758683
5469.84 98.4079 1.76089
2892.93 31.0778 0.59905
7240.98 84.3953 1.49867
7005.7 148.148 3.01946
4568.24 38.7042 0.919393
3421.82 39.9913 0.812981
4850.69 55.1185 1.04203
1706.11 30.6152 0.783702
1756.27 29.8126 0.720048
5108.47 74.4948 1.72663
3907.05 52.6995 1.27836
1283.63 37.4559 0.88553
2260.78 66.3952 1.71158
3220.69 62.1785 1.756
1840.8 48.522 1.16665
1753.46 69.9116 2.02848
3175.28 43.7561 1.12528
3893.88 80.6374 2.28796
1911.55 38.8342 1.16249
2416.78 37.0471 1.12078
2429.56 53.3868 1.67054
960.716 49.3372 1.58418
1947.36 38.7568 1.28129
1786.05 38.5817 1.39421
2296.27 53.3575 1.9963
1030.97 25.4617 0.940852
2020.24 39.2335 1.47673
2613.14 76.542 2.6521
1374.74 24.9049 0.853969
2003.6 60.5052 2.25914
1435.47 53.1657 2.23521
4092.91 82.0865 3.50361
1354.09 52.5054 2.17332
1956.64 79.2123 3.18852
1133.29 63.5947 2.80624
1754.03 49.0142 2.23855
632.128 28.4177 1.27386
1218.51 38.1036 1.92484
981.844 41.3687 1.88726
835.912 48.0034 2.53293
1196.09 35.3825 1.61781
1338.56 56.674 2.71634
1548.67 53.2656 2.7635
2715.61 75.1032 4.03037
794.394 47.474 2.30422
784.61 20.6537 1.24322
1673.29 56.8594 3.14027
1186.22 56.9848 3.24722
1656.98 78.7966 4.46695
1458.76 67.533 4.25419
938.883 62.1084 4.06808
1210.81 41.8642 2.16264
708.565 22.1024 1.27998
1125.7 75.5989 4.70055
977.478 45.4925 3.04385
852.746 51.8217 3.26579
1947.24 102.009 6.47925
642.254 39.3471 2.47681
496.901 31.2745 2.15721
1690.4 99.6464 6.76639
780.339 31.2164 2.05551
733.574 41.0961 3.21404
1123.01 42.7582 3.11758
911.264 46.3651 3.21529
1040.25 46.3977 3.01916
1453.81 78.4102 5.90033
529.547 38.008 3.06876
234.12 29.4252 2.33342
979.504 69.2898 4.84435
1130.65 77.636 6.46924
853.985 79.7417 6.83358
579.191 24.6252 2.09859
1583.35 98.4314 8.7798
449.679 57.4698 4.57697
798.399 42.8003 3.61724
956.186 67.0905 6.54848
1002.33 56.523 4.59717
650.235 54.3067 5.31767
828.724 58.4312 5.37952
711.409 62.4161 5.34303
1107.51 52.1572 4.92034
938.074 71.8053 6.62533
646.622 43.9628 4.25494
309.529 38.0144 3.63176
553.03 37.2814 4.12386
656.263 44.7859 4.76198
1292.66 88.2025 8.52897
412.546 54.1477 6.34728
765.769 59.996 5.90566
608.771 53.265 5.47446
1105.12 77.3216 8.52282
706.451 84.3049 8.95398
457.712 25.367 3.20606
609.314 26.6522 3.11146
452.655 30.4184 3.61456
722.065 57.5389 6.27688
464.81 67.4943 7.84549
255.041 49.3718 6.53261
777.582 65.5979 7.56292
700.25 38.0421 4.36173
434.311 22.4028 2.38786
347.706 55.7006 7.61348
678.744 52.0407 5.62871
758.997 69.5095 8.79681
449.454 33.8474 4.15843
528.98 41.067 5.32397
576.966 45.6859 5.34468
469.431 30.0552 4.17097
591.738 48.1362 6.58
356.921 26.8499 3.63076
248.384 24.9091 3.60691
516.713 29.2066 3.74406
325.191 23.2333 3.19191
366.814 34.0912 4.94203
690.484 44.216 6.32807
491.091 73.8938 11.2
385.13 34.0217 4.93132
131.579 25.6281 3.97179
505.643 42.7966 5.89793
225.64 39.6506 5.84801
325.391 34.5666 5.28517
208.766 38.9587 6.37454
440.412 36.6009 5.96847
448.471 63.0967 9.79989
650.732 94.6926 16.9715
259.063 22.3752 2.75005
446.874 76.9272 12.9566
370.198 45.5045 7.44583
486.118 43.8978 7.39147
609.539 45.4787 7.13267
267.48 36.3659 6.34284
553.186 49.7282 8.29939
359.269 42.5906 7.44573
331.207 27.6462 4.60671
366.135 58.058 11.0318
678.095 64.0922 12.1142
310.803 53.1566 9.51392
406.061 34.8902 6.98155
518.868 45.3485 7.89754
162.934 20.1018 3.93556
553.58 87.8838 17.2989
401.345 42.8193 9.20491
364.542 52.0908 10.5033
410.948 58.1577 10.3137
221.28 34.1286 6.32966
382.992 46.3217 9.63333
280.084 47.4267 8.86988
257.125 40.203 8.1464
493.684 70.4925 12.8322
423.582 89.7293 20.2047
387.942 55.5093 11.1035
117.314 40.7625 8.89488
286.416 60.1523 11.7916
271.443 53.6508 12.7206
299.268 62.7283 12.4686
166.896 27.5792 6.89793
564.28 79.3707 18.1167
216.538 14.1401 3.22289
304.988 33.9888 7.72789
154.256 22.7401 6.05968
261.458 42.0341 7.83753
149.652 13.6451 2.57529
220.665 33.7127 7.45782
124.618 32.6709 8.0731
209.177 38.7509 9.43831
254.914 49.8331 11.9239
256.356 37.5126 8.41053
282.199 52.034 13.9319
321.752 57.4331 15.734
76.7536 17.6681 4.08937
216.184 23.0664 4.74176
318.333 52.9552 12.727
290.027 41.4261 10.1094
190.438 37.0365 10.736
288.806 22.7371 3.82671
339.771 74.4516 19.5793
197.843 27.2511 6.78599
112.106 15.89 4.97534
385.55 94.4482 26.209
249.96 31.7241 7.1815
306.21 47.2435 12.636
96.5953 19.6658 5.45399
207.151 40.0523 11.4834
175.917 40.3481 11.0056
334.662 50.9317 14.0237
287.667 39.4191 10.8576
201.604 41.4152 12.4127
78.5953 25.0874 8.2761
268.615 36.3168 11.0665
338.107 65.049 18.5889
179.839 54.8767 14.7069
384.261 61.2397 18.1728
137.581 26.7885 7.51572
184.501 52.0091 14.2946
266.481 35.1934 11.8866
93.6493 24.7536 7.48705
217.452 50.3693 14.7105
253.863 58.0846 18.5496
79.9663 15.77 4.8824
221.165 41.7041 16.2035
117.603 21.9292 5.08963
151.388 34.9623 11.0804
234.459 44.0269 13.336
143.795 22.734 8.2453
120.154 35.4019 13.664
192.62 33.3368 8.46432
217.512 42.4247 14.8634
186.503 43.0339 16.5736
131.686 36.0928 11.4607
160.726 28.8655 9.98603
155.596 41.7408 14.8645
282.236 50.8006 16.4142
57.065 23.7332 7.85603
156.741 25.5439 9.09474
112.422 27.8491 11.0623
101.831 23.8195 8.88778
105.192 33.6414 10.7041
187.397 40.2568 15.1473
100.017 17.4862 7.98579
100.105 19.4075 8.14865
114.407 16.9764 4.28176
191.712 54.3549 17.3515
135.544 31.2388 10.2834
100.051 25.6534 8.26909
102.529 40.6505 13.4898
76.6714 44.5794 20.3465
164.03 34.3333 12.2104
144.545 44.0232 16.537
120.251 27.0497 11.32
214.522 61.5412 22.9227
99.5029 30.3983 13.626
147.675 30.219 10.4532
153.967 32.074 11.3605
107.157 52.8071 21.0103
83.978 17.3822 7.72861
97.987 22.0296 10.8482
181.672 30.7244 10.8213
141.304 34.3537 12.3639
218.919 46.741 18.8483
152.033 42.7564 15.1409
152.748 27.7972 11.7374
112.007 32.728 12.6158
131.093 33.4064 14.8423
120.359 36.2937 14.7108
179.854 47.1722 21.6845
66.9626 26.3052 12.9309
63.0017 13.6402 4.82361
41.3764 8.0816 4.57754
95.9876 29.8764 15.4122
176.524 33.2783 12.3716
166.245 31.8074 14.3076
118.871 52.7666 24.8394
171.316 30.4155 10.581
93.9359 28.6639 15.3583
99.3894 21.5522 6.93679
164.758 48.654 22.5391
91.0646 32.034 12.8356
131.23 40.9347 17.1736
120.161 42.0895 22.7802
177.983 37.9912 15.5335
58.0081 9.29446 5.14556
106.133 36.6585 16.029
90.5803 27.5545 12.9683
105.276 54.7938 25.7294
122.469 42.3744 21.6634
103.43 19.595 9.78919
143.077 38.4741 17.9243
139.597 30.5288 15.6687
67.3725 19.3121 10.9923
69.327 10.7876 6.13253
95.7585 35.9267 15.7887
59.2055 40.8525 21.5238
97.9703 31.8151 17.0567
109.501 39.4678 21.9955
123.7 27.7694 12.1972
111.242 36.3449 17.4608
82.0878 25.4426 14.8937
222.76 82.4903 40.9078
105.617 22.4726 17.0227
52.34 22.1442 10.2002
119.95 27.0677 13.6725
72.1161 32.2501 18.0528
144.401 35.2026 18.4827
88.4247 28.0403 13.4553
65.482 28.6928 14.7776
118.548 38.6748 22.8563
98.409 55.1203 29.922
100.506 36.6892 21.2972
120.528 35.4229 18.4132
122.94 27.7145 16.0293
118.434 38.9119 17.6842
107.316 26.2353 14.619
50.8994 8.73278 6.68482
92.989 29.1775 15.102
75.1583 36.4005 17.9326
56.1378 21.8761 14.5507
99.0325 54.09 31.8592
141.322 38.4829 21.0828
77.2279 23.5807 17.0106
104.589 28.4305 17.6826
152.849 44.0909 20.281
135.027 57.1484 39.865
78.736 27.1975 13.4632
102.73 37.9407 20.2119
69.7848 21.1266 15.0308
77.6698 46.9032 26.168
29.2574 10.1943 8.43177
118.461 26.8928 14.917
95.6203 28.1135 15.0197
63.5061 13.2628 9.00693
68.5937 20.1163 11.6395
65.6086 19.9627 16.3662
56.5853 36.9672 28.0475
112.164 55.097 29.0918
68.0707 29.8356 18.3037
27.091 19.8784 16.3769
97.2119 30.0114 12.4455
106.176 62.5666 40.5766
41.6914 20.8089 12.53
64.6254 19.5297 13.6355
66.8935 18.3692 10.7823
56.9246 20.0583 14.4134
53.1515 12.946 8.80211
41.099 11.8531 8.89065
58.0534 23.3258 16.9939
119.552 53.9914 34.4681
65.8808 39.2217 28.1273
108.107 29.5518 17.5683
80.6515 31.5046 21.8774
29.1995 19.3773 14.4679
38.936 24.5349 18.7407
69.3276 20.2001 14.808
95.7834 30.3672 19.6816
65.7123 34.3981 21.1819
35.5965 14.2681 9.12007
49.726 22.5807 21.5208
64.2934 24.4198 16.5364
66.0082 38.067 23.9252
49.2781 17.7101 14.3113
99.5266 34.0017 25.883
47.0675 34.0733 23.4276
92.9823 39.343 25.9941
85.8026 53.779 39.3101
26.6667 15.2039 16.4237
86.5153 28.578 20.846
68.6993 37.2582 22.2135
50.2522 17.4427 12.0959
86.1447 35.8175 23.5592
38.5761 16.8734 18.8854
33.4244 16.6803 9.42386
65.6388 27.7546 21.6361
58.4592 17.6331 11.8149
43.8602 29.962 24.6908
35.5183 12.0259 8.30834
31.8044 22.5735 12.9646
45.5361 21.0359 17.6322
17.9612 17.1825 10.5396
22.6796 24.7261 21.7389
68.9557 20.6207 16.0129
47.5408 22.8891 18.6832
53.7261 25.2066 18.4314
48.6519 29.4116 27.8849
51.0768 36.2884 26.7853
39.1091 11.1508 9.37533
88.6068 25.7366 15.4116
38.4706 22.9433 22.5599
37.6996 23.5817 18.6162
78.8923 40.9352 28.1517
45.2021 19.201 19.8364
52.8359 20.9681 20.1307
35.4217 13.3824 7.06726
35.5918 19.5137 16.368
26.1598 26.128 22.8964
58.6485 30.7431 19.4766
42.9181 43.175 39.2567
69.2157 33.6934 25.3241
54.1536 24.1035 21.5891
79.0353 27.029 24.0978
13.0167 11.0308 16.28
74.9733 31.9732 27.3725
67.8228 24.2229 16.1246
41.0927 14.3452 9.9002
63.8382 34.5694 24.5217
45.5841 12.9508 12.8607
49.5742 25.5048 25.1117
37.6011 13.6147 12.0581
50.8422 17.4387 19.4607
42.6604 28.1892 21.7911
37.3475 22.87 19.1162
54.1242 41.0832 44.2177
64.5858 44.8992 35.6743
68.3175 22.264 20.0743
38.2734 11.7824 10.7424
54.9168 29.2945 25.0905
45.9186 15.9897 14.9517
25.8153 16.707 17.6417
49.3326 14.3914 9.87776
40.255 20.5461 17.8147
32.1316 17.8473 18.2958
59.1917 30.6031 22.1931
56.6383 29.5689 27.2589
44.1368 28.6779 29.0221
38.4901 28.1858 26.2581
23.6979 12.4282 13.985
45.5873 17.6541 19.909
39.3018 10.4423 8.93654
37.4141 33.7535 29.3637
31.9572 13.7092 14.8012
54.3704 35.1044 30.7324
34.8232 17.9979 17.4171
31.2784 12.5481 11.9395
71.1283 38.3846 48.2429
72.8662 36.9381 32.7418
29.3099 14.5643 13.218
52.9009 27.9891 24.1896
19.9897 32.0227 36.416
60.2104 37.8372 32.1573
65.8573 43.2486 45.552
34.2657 10.7632 12.0277
39.6524 17.8303 18.3513
39.5688 32.2083 27.1958
37.357 12.7987 16.6895
24.9249 26.4354 25.4998
26.2167 28.5649 26.6699
36.2267 23.9434 21.9246
31.9242 18.4804 17.7715
25.2935 4.16851 6.50371
34.8402 12.7186 13.9569
37.5691 11.9336 11.5839
26.1007 28.5676 28.2463
26.2769 28.7037 32.1566
30.8546 20.4334 28.1572
84.4294 37.7847 29.7156
37.4896 14.0727 20.8298
14.9608 13.4374 21.3531
29.7274 31.3488 25.9642
47.0013 34.0607 40.299
34.3002 25.8299 22.496
28.73 14.9759 16.6639
34.5866 24.3822 23.0156
41.2149 25.9167 24.5704
29.1138 6.69265 8.73333
24.8546 12.8375 17.3241
43.8154 15.7752 17.9798
40.9119 28.3652 28.3857
51.7936 28.6916 36.3767
43.2579 31.6429 33.3716
48.3445 27.887 24.7392
28.3549 16.6208 21.0703
53.5861 17.9066 17.7509
41.2533 20.3942 24.8589
23.9687 12.1184 8.50348
28.9595 28.3047 40.1193
42.9282 16.5949 19.6431
41.5437 26.8341 27.2936
23.135 37.6779 42.1315
26.2913 23.732 27.2175
24.0412 9.00244 11.0641
23.7252 22.2084 22.3684
35.7422 19.5995 28.0265
36.7676 18.3376 17.615
15.932 11.16 15.7644
29.9998 10.5864 14.5529
39.2401 32.3143 39.3426
58.7785 35.2265 39.0572
54.5783 34.8796 43.7818
23.8404 24.7776 24.4543
25.0553 46.2922 58.5393
36.6414 10.7183 8.48953
24.3071 12.9572 14.3276
27.9703 34.1935 41.1568
28.5211 11.999 16.6447
50.2385 17.9989 17.6755
40.5704 33.4036 43.3431
27.8468 23.4231 27.5576
48.1228 21.9412 22.6917
23.2692 14.9285 23.0127
11.5379 17.3495 19.1222
28.3342 35.3638 41.2281
29.8505 11.7212 17.6729
29.4684 19.7775 20.1355
35.4644 38.0084 55.0305
40.6061 42.3101 60.1747
33.1044 18.4169 13.4905
32.5083 25.0543 27.9604
22.1567 26.8444 38.7592
22.8472 10.1075 15.2894
31.707 12.2931 20.5223
23.6796 15.4196 19.1774
17.7059 30.1965 39.6715
40.9311 21.646 25.1958
16.9437 7.63693 12.7444
31.1172 29.2139 27.4441
13.1322 9.12408 14.2102
21.3098 20.5313 23.8891
25.7089 31.0989 40.2676
25.6436 6.92894 11.3595
25.9353 21.8571 25.4175
33.6422 15.1669 19.3929
18.5608 12.6874 21.0122
24.858 4.42624 10.3834
22.9309 16.6493 23.1387
38.9456 16.5015 26.1172
48.4911 28.7834 35.0147
40.368 25.9068 29.2707
33.0467 33.054 44.7284
39.4984 21.3876 22.0994
33.1193 28.844 40.0289
22.2177 16.8773 24.007
23.261 13.1045 17.7362
22.6417 10.8797 16.4245
23.5342 11.0399 11.101
21.5079 14.9703 18.9183
40.1936 25.3589 47.6245
20.6026 12.8406 15.1242
29.1102 26.7254 27.1865
16.2285 11.9702 19.5784
32.9816 25.9377 45.7785
44.1508 35.0613 40.2333
23.6688 21.0796 27.2942
28.099 14.8767 23.4034
20.201 11.515 16.5851
13.8499 15.8193 25.6628
26.2028 11.5924 20.5367
28.2138 16.5816 30.8084
41.9702 18.7524 21.2837
17.5746 13.4858 23.3851
30.5753 19.6958 20.0892
30.1692 19.0824 24.0775
20.8314 20.0928 33.6095
23.5436 18.3008 27.1745
19.7534 12.1448 14.9048
41.7984 31.1676 37.297
10.5169 9.59258 16.7261
10.6441 6.99704 12.2949
9.97161 5.85189 10.8189
23.7048 11.6156 19.9542
28.4369 14.9342 25.8285
20.2122 25.1377 32.6512
30.1666 11.9096 22.2534
41.2221 21.1802 25.1753
17.649 16.6824 26.2627
21.8888 9.75164 19.694
18.5277 21.7726 34.1111
29.184 12.0937 15.4775
25.8557 10.1682 20.492
35.8018 19.6968 29.9053
30.6743 17.0729 18.785
38.463 31.1104 42.7511
17.0456 22.1482 38.6914
35.0101 29.4973 34.6905
26.4723 13.1506 15.812
17.7666 8.99228 13.7541
28.2663 24.1408 38.5905
20.3134 9.43179 21.1985
24.1458 22.9221 42.4868
31.8735 14.9812 18.4525
13.3755 9.12189 14.3198
17.0842 13.1073 14.844
19.1564 9.06793 12.5077
19.6246 28.4785 52.121
32.3951 9.53542 14.6727
22.6039 13.5787 26.8841
28.0766 30.302 48.2114
18.5408 18.5574 25.0664
26.2737 12.4152 17.2374
14.7065 16.8485 27.877
25.8642 20.0543 35.2593
18.3806 12.3691 18.9685
28.4334 17.7399 21.073
17.89 29.246 56.1435
19.9243 16.7093 31.3318
10.9118 9.04103 10.762
9.01044 12.4964 20.9819
14.5801 23.5876 26.4647
19.8352 10.7507 16.2884
14.8569 18.3826 26.2499
13.3117 12.1138 22.7883
13.7349 12.703 19.1075
14.474 21.0348 50.1599
39.7485 20.0173 28.1173
24.1604 10.1828 17.7949
23.5557 16.6978 27.2006
31.6561 14.9531 27.9829
18.4203 18.0947 30.1767
39.1061 26.0253 26.6755
11.6794 17.9772 36.1738
32.1806 29.1703 63.5957
8.78797 7.65531 20.0704
28.4874 18.9139 27.3771
29.1098 16.9803 34.2477
21.3624 17.2207 23.8437
25.087 23.5403 27.2082
12.9472 15.5873 29.559
17.4833 5.80454 11.6559
28.524 10.1602 11.4941
17.2959 10.0386 11.4759
25.3399 15.9393 34.6075
21.0387 15.4845 27.615
16.1953 19.9055 36.6168
30.8829 25.3058 43.6028
9.37382 22.0146 37.0854
15.0446 22.4074 56.8886
34.3215 17.2332 23.3989
15.5925 5.74896 8.45079
9.0563 10.3403 18.6877
17.606 9.03922 10.2277
10.7666 7.92002 14.115
18.1261 11.9952 23.6954
11.9339 9.39772 17.2367
16.4122 19.1978 29.9065
19.871 19.1956 37.555
15.2893 22.0659 34.0334
8.42093 10.5868 20.9443
16.7501 22.3355 36.633
19.861 11.267 17.4686
13.5546 10.3512 27.5531
15.2463 10.8584 21.7612
19.7558 25.8608 48.1029
28.5163 9.23703 11.6732
17.1472 11.5772 20.0586
12.5229 8.58 21.0425
23.9783 25.8748 54.3703
15.2351 21.0287 28.4149
13.3882 14.5198 29.0861
16.0551 15.3324 21.8158
12.4443 12.7734 25.5578
10.58 6.40987 6.99394
10.9555 10.5749 14.0432
4.04181 14.324 29.6453
13.0755 16.0498 42.4122
22.3109 11.7161 24.1619
21.2007 10.1965 19.1631
19.2239 15.6248 32.7717
38.6087 21.4427 38.1191
13.9286 13.6836 30.8244
22.4622 13.1193 17.4272
25.2504 13.5285 27.3368
15.5534 8.38768 9.04745
20.4364 19.1891 46.0649
25.8105 20.561 34.7581
11.0122 10.2766 17.7528
16.1977 8.00312 22.2369
16.0732 8.71587 15.8361
17.9043 21.2642 37.1857
16.5627 7.63858 23.11
10.5834 8.58889 14.1574
16.3173 17.521 31.399
12.3986 16.9454 28.7466
22.6548 15.2414 28.6752
15.1656 23.3116 53.2057
21.8047 7.54842 15.463
8.41651 5.43048 14.1572
23.3981 12.1682 20.7052
18.6982 8.56513 13.4502
12.1222 5.34155 10.9084
14.37 12.1797 33.5455
15.9644 11.1427 20.8713
9.53124 12.0943 19.9778
12.7724 10.6905 26.4906
13.3808 5.18871 9.18649
16.3072 12.6388 17.8089
5.94944 15.7645 36.3135
20.0445 13.4078 34.9201
29.6412 12.733 22.1791
25.4043 9.50733 10.8965
10.8163 2.8859 5.09174
15.3505 7.37817 27.7897
23.9907 19.3059 27.8056
11.8833 10.2759 19.0597
9.96403 3.34312 15.1572
16.1717 2.924 10.381
23.2622 11.2314 16.6906
14.2636 11.683 32.2274
27.7388 22.5648 38.4842
11.6905 11.7669 26.0016
24.9966 16.7123 35.1091
22.5525 11.767 29.8569
11.5643 9.52517 16.3219
12.8658 18.2299 34.7588
22.2459 9.39764 19.2557
29.7235 22.6374 37.8847
10.6548 12.8728 17.9104
7.38581 3.89779 9.83498
10.5871 9.60346 25.5106
7.47024 7.36238 28.325
11.1467 9.32348 21.2212
22.2412 26.2105 48.3217
12.8576 7.38072 13.5571
12.1846 8.82677 19.7148
15.8419 15.1543 37.6762
23.4169 18.5233 41.3091
8.91477 10.9626 29.7811
6.53152 12.1261 29.7999
16.281 27.3945 53.1646
9.92602 6.85872 22.9605
12.9899 9.92496 14.1146
13.481 7.01814 21.379
23.4683 28.3309 51.8208
12.6343 6.64536 21.6108
15.9988 7.14087 15.2611
24.5082 9.67805 12.728
15.0585 10.1903 16.224
12.5494 7.69887 13.4635
9.78915 14.5279 37.1673
15.8222 8.62079 24.9811
12.682 9.48563 20.1187
18.3611 23.5754 45.412
13.8853 15.083 37.9099
8.88847 10.5905 33.251
18.346 11.6506 13.1836
6.94526 6.88743 24.4535
26.3846 14.2939 16.1741
11.2441 9.71488 32.5154
10.8174 6.31938 14.4093
17.82 8.69559 17.5186
11.8634 17.4389 48.1859
23.0885 10.755 17.7235
20.0343 17.8942 43.0074
6.19957 8.78514 16.2454
11.3743 16.6455 17.9318
8.76687 18.9069 65.5161
12.5936 20.8004 55.9637
24.5962 15.6123 15.8304
20.8666 17.531 43.221
10.8502 8.115 15.5219
17.1732 10.4211 24.5251
17.3028 10.0491 25.089
14.2054 12.4139 27.3203
13.764 7.25845 13.1519
12.4872 6.9663 15.4109
15.7774 7.26788 9.9518
8.16426 8.77952 20.797
11.5141 7.85351 24.4138
10.5493 7.84546 18.8521
14.4159 7.72017 20.3551
10.7909 13.7004 40.6517
26.4045 16.3749 31.7613
13.9675 10.5768 24.3575
7.32823 9.59367 22.5403
5.74282 11.6576 18.1294
7.36653 10.3548 34.6569
14.5245 4.35439 11.9702
13.8077 6.26212 13.3733
12.74 7.44184 21.0056
14.7578 10.1048 16.8263
9.89577 6.23353 19.1997
17.0341 13.1693 30.2968
17.2235 9.49418 17.0402
12.9933 9.69942 20.8319
8.64931 7.17012 23.0294
10.9518 10.8221 19.9763
14.4974 21.0265 54.7072
12.0053 7.07516 25.1726
18.5518 8.61535 21.3316
16.3146 9.54123 15.8117
12.8403 6.67569 16.3266
11.575 9.60184 17.5882
18.1518 9.5416 17.4678
8.85279 8.62379 30.1322
12.5201 4.25216 31.5331
19.4555 14.7309 25.6252
16.9366 12.5399 23.0511
11.2503 11.4185 24.0955
10.8033 4.60392 18.4191
17.3443 12.391 23.1358
9.40101 8.30435 22.3217
10.2486 9.61503 22.5436
8.31006 9.08653 26.0889
14.0936 13.5639 32.7541
7.69619 4.01935 16.6934
6.77454 7.59247 25.7651
15.3294 17.3957 28.5831
7.54942 6.43869 14.375
10.035 12.1225 23.1879
13.0174 7.31293 15.0258
14.1686 11.5897 21.7874
12.0661 16.5177 39.5177
9.14848 7.5499 34.3992
10.6041 3.78626 18.6055
13.5989 7.58026 20.4352
14.5779 4.37816 7.8487
14.9931 10.6416 27.1165
14.8267 11.9569 28.7738
14.7813 13.9871 38.4982
4.94377 18.4196 37.7408
13.61 6.37598 16.3394
11.6175 5.00486 22.164
9.20873 12.0768 19.9788
14.8308 11.5532 32.9866
14.3079 7.47179 12.3655
14.0385 12.904 34.3952
8.04654 11.054 24.2212
6.85836 5.56219 16.0858
8.95024 6.16347 15.973
7.17974 7.84729 24.4556
10.0901 12.9369 26.3779
11.7396 7.54585 26.8661
8.67735 11.9969 31.9635
9.208 7.72831 23.1582
14.5756 12.632 34.4821
8.63116 6.65693 31.4143
13.9076 20.2386 31.4617
10.6992 8.17827 29.7983
9.92326 5.97248 16.2562
5.56984 6.726 10.8773
6.62629 11.0022 27.1149
9.6573 2.55621 8.03541
9.0638 8.66507 37.3125
13.1922 10.1877 19.2065
7.80888 15.4878 42.7169
8.89663 6.7289 13.401
11.8731 9.88998 25.8397
5.13512 9.38957 17.088
8.91098 8.75246 31.5672
13.7985 4.98817 18.172
13.9605 13.4454 35.6803
12.6505 11.3242 30.6167
6.11773 8.07666 26.8611
20.3488 26.8674 57.8925
7.75506 4.68024 13.9535
9.84908 14 54.7507
10.5822 14.2745 24.4502
6.6964 7.64003 22.4798
12.3422 16.5767 38.5425
10.5099 5.21633 15.9029
10.3578 6.36266 24.7757
12.2297 10.4771 29.1485
10.8203 5.05757 6.84098
8.78634 8.84256 23.0813
9.45489 8.9409 25.9325
11.324 4.27235 16.1441
12.5221 6.58821 18.6403
9.58831 4.63157 16.0264
12.8198 9.18183 46.2392
19.7057 12.2135 16.1515
8.17828 7.68074 19.2171
8.06082 12.0332 24.0326
11.2701 17.5032 39.2586
9.85756 4.24528 15.0969
11.3079 11.4843 41.9899
20.8977 13.4443 23.8368
12.1766 11.9778 32.9269
9.29016 5.56196 24.1009
6.9002 10.577 24.392
7.15872 7.32072 20.6325
9.97344 7.68673 36.88
5.16002 12.5185 24.2393
10.486 2.86408 5.8533
9.45275 6.02729 27.9399
11.7955 4.09947 16.9699
14.0905 9.42797 19.033
7.12692 5.04356 14.2479
7.4802 6.31913 22.621
9.20855 5.50565 9.06364
9.4346 6.25535 29.1996
10.219 7.91427 15.0665
11.0614 9.86804 19.5552
8.94957 8.11486 24.5554
11.9078 9.08639 48.1027
18.6903 16.0108 24.628
9.4056 7.77993 20.4374
10.193 9.62165 23.08
8.01413 3.19165 10.0313
7.12949 3.87835 10.4156
8.34273 6.19053 21.5978
9.04469 6.64036 14.0938
10.1494 4.78707 15.9922
8.1789 5.86331 16.1858
9.84979 5.24038 10.1066
5.41703 4.8279 25.6363
8.93497 6.43065 10.3049
6.08159 6.60854 24.6722
6.86968 7.27698 23.2788
10.5242 11.0017 35.2307
7.44654 10.2276 23.9333
13.7475 13.0189 29.6878
11.8365 5.61073 15.1711
6.25151 4.17051 9.19203
7.63608 3.23587 13.043
9.04847 5.27452 13.3219
8.45963 7.73643 30.8374
5.54188 6.8102 15.7549
8.45522 5.51887 10.9722
9.31147 13.3838 48.119
12.2954 6.99996 19.5167
10.9853 7.21023 10.7809
9.71552 5.25906 21.0884
13.3352 6.29691 22.9504
14.2665 8.82498 28.1123
7.54529 3.89443 9.30946
6.07082 4.77819 12.9356
9.01945 3.9573 18.4807
10.6688 10.476 29.36
10.4786 4.03841 16.8594
11.0886 15.7964 28.3377
6.42838 4.1321 9.42448
9.23856 6.15889 16.7267
5.91353 4.69316 18.7007
6.27861 7.10171 29.9257
10.111 8.8269 13.6298
10.2512 9.56306 24.915
6.51403 6.17264 24.0173
7.17878 7.64701 27.0742
5.41447 17.8925 60.299
14.1645 7.90583 19.5349
7.37197 6.82158 18.8357
12.4261 13.4444 41.9853
12.7069 12.4154 32.2735
10.5888 8.44533 23.4851
9.52003 7.54275 17.4133
9.74092 8.46665 22.5246
4.96364 5.13149 24.4672
6.52401 4.35597 14.7028
10.4324 5.24945 26.0719
14.1556 9.89085 31.5343
7.77356 6.01369 9.79908
9.71539 4.88206 18.6366
8.81602 6.06102 18.4999
7.13765 6.50591 17.8064
7.47761 9.01552 26.7898
8.41406 7.01342 24.8547
8.94688 6.60486 22.7031
7.49615 2.53269 15.8252
11.7841 12.9505 36.2389
7.54111 8.45272 12.6917
6.9175 5.37457 25.1068
8.37714 12.306 40.578
9.15999 7.52212 13.4121
5.98254 3.61577 18.5152
9.34376 9.76205 34.7531
6.16728 8.80817 27.6074
10.2271 12.1147 31.256
9.13551 9.67236 24.046
7.31979 3.50904 17.4081
5.01112 1.06315 12.4835
7.37095 5.35709 6.52347
7.4588 5.36467 10.2523
4.02487 3.88908 21.2654
10.0628 5.11484 21.8941
8.94149 8.00622 17.3294
6.2575 9.06735 41.7441
4.72446 6.34221 29.3399
11.7988 14.5489 22.9429
8.62398 11.4326 37.1009
8.67303 3.22863 10.4699
6.59952 5.98772 23.4055
8.10168 2.39344 19.0146
12.3537 12.3042 39.2754
6.16828 9.89976 25.8696
11.7395 13.7569 36.4224
9.04982 14.686 46.4575
8.24461 8.01519 32.0736
6.16109 2.98755 11.0534
5.09902 15.0856 65.6801
9.92393 13.1967 20.749
11.5256 5.04082 16.5999
7.64702 6.30486 25.7348
8.87375 2.03007 10.5047
5.90516 5.93235 11.5533
7.05498 4.68958 25.7704
6.49225 8.7061 20.8058
7.62338 11.9005 29.8131
8.15991 2.91712 17.3054
8.14005 8.8393 21.4203
8.11911 4.1369 18.4491
9.4038 4.87077 9.51751
7.16729 2.43959 10.3268
8.66927 5.47231 8.32221
5.04999 11.3483 70.286
15.875 14.5612 25.6532
8.31188 5.61151 13.7417
8.40439 5.60702 20.2766
7.62606 8.97447 37.0868
10.9172 3.73794 11.1789
4.61156 3.10521 23.4932
14.2453 9.51505 18.2225
5.11192 3.0087 12.4588
8.65312 6.15021 15.5416
10.6587 10.9157 28.6272
3.87556 3.14976 16.5262
6.63199 3.18285 8.88193
8.29125 9.98935 27.0448
6.6672 2.76419 16.7691
7.25185 5.48021 7.89762
7.03625 4.69143 12.7904
5.75595 2.12898 24.2878
10.3196 14.464 33.8726
8.4583 6.18048 27.6421
8.51669 13.5738 33.5549
10.1723 8.87163 31.5782
6.0618 3.98715 9.03307
6.86893 4.42238 15.0476
7.5994 2.92899 16.2188
4.73005 4.35508 28.6219
7.87848 12.9105 51.6618
8.21399 13.5317 29.9331
7.34121 4.38861 15.1458
4.76314 3.99022 14.8034
4.47007 4.12043 14.7778
2.89098 8.49103 18.4863
9.60351 4.87664 11.0351
6.12505 5.12815 10.0611
6.10492 4.63881 24.2526
8.58615 4.59306 15.2483
7.26446 2.58231 12.8963
7.37985 8.68773 33.3431
5.72207 11.1026 18.3465
9.26732 10.1766 45.9977
7.0548 10.827 34.827
6.71136 1.84333 23.4208
6.38368 5.48252 11.2846
7.88995 11.7365 65.9625
11.1102 21.1362 36.6867
8.21501 6.71263 19.2208
6.66533 5.08863 21.6157
6.16341 5.32274 20.1686
8.16158 4.64354 21.6124
8.84201 6.14037 33.7312
10.1325 9.50586 21.7686
8.81693 5.05462 14.3826
5.04934 7.92143 18.0466
6.49598 1.31723 10.6714
7.01452 4.01606 7.42491
7.60748 5.87377 19.9326
5.51297 1.62434 11.2398
7.43937 6.6597 13.0036
5.46312 5.43094 22.141
7.28365 5.9096 33.2594
9.3176 7.57985 14.7296
8.2082 8.4565 32.8596
6.71941 2.95973 16.7344
8.23487 3.59971 11.9647
6.14255 6.35673 12.2031
5.06205 4.09395 18.1276
8.30564 5.64028 15.3604
7.64861 6.26197 15.3206
5.16308 5.86773 27.1336
5.31776 4.33597 35.0133
6.26679 2.94742 13.7612
7.29751 4.77239 11.8836
6.36265 1.43449 18.4742
5.79709 8.68362 23.8709
6.46891 11.7371 34.2012
7.68923 3.72243 9.04681
5.40892 3.16819 11.2967
6.57078 4.0286 14.4228
6.64633 5.24491 26.1166
6.80743 8.02229 22.0545
5.01882 7.18909 21.9108
6.16876 4.30872 19.6141
7.78848 7.50266 20.9598
6.71815 5.69225 11.9188
7.8651 2.88315 9.76333
4.95904 5.03864 18.5394
5.74692 12.3605 34.1198
9.08155 7.77954 22.8927
7.26807 4.948 16.8386
7.60723 14.5166 37.6833
6.16728 3.27838 9.82281
4.27359 5.97976 12.5388
7.20512 7.13408 32.9113
7.01912 2.34013 16.9646
7.25833 4.98812 25.2945
9.41379 5.52075 20.437
6.56123 5.38731 11.6995
7.45245 6.26828 32.2489
8.21579 6.20423 24.0655
8.79521 7.33264 22.7812
4.79596 7.28476 18.2723
6.87532 3.65304 22.0347
10.3175 7.76744 15.8965
5.3601 1.75618 21.7725
7.31484 3.98979 17.8562
8.0213 9.16965 19.3581
5.82021 6.55818 18.3406
7.37551 8.84383 33.9986
7.82167 2.60046 7.19459
5.93509 3.08124 23.2889
7.51571 4.21617 18.0849
6.24025 3.96695 14.5935
7.89145 8.87492 25.017
6.71063 4.38959 22.7453
7.21521 6.06798 22.5318
9.18486 7.70327 23.8701
5.71928 4.45166 26.533
7.96899 15.6112 51.7908
5.77816 6.75947 21.8041
8.94058 2.3043 15.9101
7.84205 5.44876 28.4459
7.59981 5.19856 16.3894
6.30735 8.78525 31.7966
8.82171 8.11426 24.1089
4.36873 4.91833 15.3492
5.294 4.19688 15.0914
6.85045 6.90925 27.0577
9.00664 8.24075 23.2214
7.40466 3.78997 12.6794
7.8393 2.53497 10.6284
6.09046 3.57984 16.69
7.71485 3.329 20.5599
8.05518 5.25702 8.27638
5.86929 3.21662 10.4393
5.61901 6.2336 20.3017
7.90948 6.94342 24.3625
6.69118 4.97519 26.5893
6.55722 6.81004 23.0676
3.15724 4.23681 14.8724
7.57567 6.42898 18.4326
6.10419 5.14882 15.3846
5.7784 3.77937 13.24
5.47148 0.746898 7.32717
6.32366 4.10938 23.6928
8.38697 2.93538 14.972
8.18862 4.76532 8.12996
5.5585 4.0175 16.4092
6.19276 4.23046 15.2567
4.87305 7.03719 18.4698
4.92236 1.27625 19.4453
6.44122 3.2809 17.0584
6.87383 4.334 22.8266
5.26316 4.3784 7.40774
5.73209 3.24682 5.08521
4.69749 3.5012 19.108
5.85762 6.29058 29.7765
9.41987 11.0427 35.5158
7.27533 7.21933 19.8396
3.54923 4.37889 21.7542
8.04864 6.15719 8.13409
5.6229 8.42178 45.8074
4.03126 5.39152 26.9327
6.60137 3.91542 7.07036
4.42093 7.05325 16.2248
5.39456 3.36395 23.5124
5.32959 9.60625 20.891
7.10858 9.69898 39.5318
6.0715 5.69307 12.1976
5.9045 2.68849 9.63634
5.02827 5.29893 30.7601
7.04735 6.51898 20.9932
9.40288 4.04438 31.1952
6.75937 6.77356 34.5384
5.7233 9.2308 15.2487
6.65123 1.25018 15.1267
8.21125 6.47805 23.4948
9.68536 4.13379 13.0873
6.80742 4.28897 18.8301
6.44926 7.32673 17.5104
6.23682 4.1146 23.7327
7.93177 3.93436 9.7545
5.73028 3.61047 14.8291
4.07836 2.73943 14.0697
6.8361 6.21907 15.9188
8.51839 4.29038 21.5722
5.65537 7.40907 21.3216
5.56753 3.15908 8.20796
6.09738 6.70334 27.0799
8.7723 6.16263 20.1026
4.8842 5.33495 26.8657
7.66188 2.89071 11.2692
7.58784 3.95792 10.2673
7.5896 3.66018 7.45547
3.30786 1.32299 8.24616
4.10761 2.4142 24.9363
3.56697 3.1833 12.3443
5.42144 3.66191 11.6161
4.81546 3.1609 27.1307
4.2254 6.7446 17.8551
5.02249 3.65113 16.0265
6.28002 9.26605 37.7713
9.16214 8.74935 15.6436
5.45217 4.63933 21.1698
8.49594 7.69341 29.8121
4.35554 7.22922 22.8916
3.43186 7.64813 28.2075
6.80994 4.85909 19.6896
5.94933 4.46858 23.5168
6.69715 7.36652 21.4532
7.11373 2.88012 8.68248
4.04828 3.06048 10.4406
6.31588 4.41146 16.2377
7.46876 3.81095 23.8947
8.1047 6.50345 14.4402
6.89365 3.73876 23.0352
4.64718 5.65385 16.1699
7.08688 6.99383 42.3714
8.09924 7.77355 16.5168
5.84558 3.5638 13.6107
5.96242 6.21112 21.7892
5.50583 3.90969 11.9169
7.12262 5.06911 13.511
6.91229 7.00953 30.8503
5.25759 1.09282 19.4092
6.68711 6.12675 5.91968
4.71444 2.63718 19.369
6.68071 5.11224 8.95526
5.7766 5.85957 17.2081
5.11078 2.25601 35.5819
8.32686 6.00163 17.0659
6.29557 5.5332 22.3735
8.49297 6.55334 41.9507
8.7273 10.6268 16.813
7.63078 3.44616 8.8672
5.74988 2.51148 19.6908
5.2332 2.66059 14.699
6.04784 5.72732 13.8874
6.78606 3.75104 25.8676
7.06157 10.0078 19.6353
6.12853 2.52284 15.7195
4.64778 1.94642 8.7721
5.69098 7.75736 26.7027
6.90939 1.73671 12.2827
5.02583 9.42419 31.6842
8.85639 4.77049 16.3766
4.41859 2.38402 19.6661
5.81182 3.70929 10.5328
6.77049 4.23643 23.9715
3.04756 5.71601 13.2498
4.97397 4.50772 25.5594
4.55733 12.1457 47.6538
7.40364 4.29094 12.2547
4.84248 4.82171 9.99233
5.00265 7.60822 25.1094
7.57047 3.5799 26.557
9.33728 4.75941 11.7705
6.03223 5.80823 18.4179
8.56399 2.82826 21.9408
7.00943 8.00633 23.7413
5.341 4.57718 9.67866
5.18111 6.27005 22.9293
6.0732 5.47971 22.5497
6.0288 5.35241 31.5858
5.94257 4.89325 10.4299
4.8641 4.93287 34.5798
5.3448 4.88841 20.5411
3.84482 3.3876 10.9179
6.3456 8.07505 15.1092
6.18878 6.60411 26.4896
6.43206 1.73541 19.4183
5.68478 2.40425 10.4
4.28995 2.84357 13.3858
5.50678 2.89931 23.8788
7.15987 3.97484 34.239
8.76989 16.53 42.4232
6.28537 10.7308 43.1095
3.57901 4.02161 14.1244
3.57212 7.06661 13.9528
5.41507 3.20106 14.7034
7.6447 4.42266 17.9068
6.42411 6.21048 24.5875
7.51703 4.57042 18.1099
4.09408 4.50041 15.1409
4.6226 3.22793 29.5606
5.67705 8.57272 14.4969
5.93795 4.68351 27.77
4.55893 7.79281 22.2095
5.06983 7.98713 23.6558
6.51921 4.24877 6.7094
5.57103 2.79834 17.3484
6.62349 5.28448 14.8115
3.86254 3.4186 12.1621
4.65009 6.2314 21.3809
7.16113 1.88872 28.0364
6.2302 3.59219 11.8194
7.51976 3.70977 9.44799
6.12536 5.05456 24.1937
5.32414 3.74361 19.9516
7.58851 4.61741 7.21337
5.9764 3.9382 23.1581
6.44047 3.6844 14.7922
4.89532 3.39846 22.7977
5.59627 4.10501 12.0982
5.56845 3.12073 18.1544
6.74702 6.49108 15.92
6.59446 5.32881 19.2999
7.82672 4.10806 19.114
5.13888 4.03975 14.4631
3.37438 7.43684 18.3194
6.52368 4.6186 24.2267
7.98335 2.7759 12.5857
6.29839 2.82231 15.0372
5.28942 5.15909 14.3775
3.15534 7.43 37.3069
8.66827 4.84895 12.0195
6.10419 4.55633 15.1272
6.39734 3.26218 24.3796
8.71067 3.80966 6.97874
5.37238 2.68723 7.26623
4.66476 3.13069 12.4339
7.63629 3.9093 19.4876
4.62725 4.31001 9.8293
4.74323 5.38948 27.6312
7.9896 5.73847 33.5044
8.20471 8.04468 16.8204
5.55964 4.88783 16.9272
6.97018 2.74482 18.9741
9.19988 3.73298 18.6196
7.04202 5.36279 16.9594
6.12277 8.29198 35.7426
6.73975 3.80474 26.475
8.97742 5.83906 11.7995
6.39804 1.76059 10.0021
4.73552 3.51208 6.41255
6.16095 3.36246 24.3416
8.83634 5.93203 22.0318
7.20908 6.29956 18.6255
5.28015 3.85161 30.0817
7.74866 6.46721 28.3162
6.68683 8.16913 20.8298
7.63429 4.23437 24.5268
9.09329 8.13377 15.7423
5.78564 4.93727 18.6043
5.23881 6.36828 19.7074
4.5775 3.61996 26.5351
5.9445 5.74748 28.928
6.95905 1.75697 16.9931
4.09612 4.03611 13.2533
7.62935 3.08583 9.75081
5.78744 6.50474 15.7922
4.62509 5.90475 29.6925
9.28489 4.52393 18.0076
3.27429 5.39749 9.40068
4.99079 4.17093 39.9865
6.09185 11.4734 23.0495
6.33966 3.85504 15.5891
4.93039 4.2672 15.2197
6.37352 3.77532 8.99824
5.11168 3.61368 18.2685
7.25524 4.11642 13.8529
5.75627 5.08098 21.2461
6.2994 7.29667 21.988
6.59633 4.29142 10.1449
4.1721 1.60759 10.5376
6.09435 3.98856 4.92609
4.46094 3.02267 16.645
4.3083 2.64171 11.9825
4.56513 5.48682 17.8474
3.44065 2.25218 11.5949
4.33907 5.22506 26.3402
4.19335 3.43292 10.8915
3.73555 5.47785 19.7665
5.36031 4.96139 19.0156
9.15496 5.21851 28.0891
6.68023 3.31447 14.6557
5.14918 3.25501 23.0199
5.83794 4.41445 23.3333
6.91161 7.11913 14.9395
6.50318 4.51524 33.04
4.2768 4.40538 10.5796
5.12424 2.90422 18.3439
3.20347 5.01292 11.0657
5.89263 3.07728 5.22048
4.78108 3.30407 23.2966
4.85315 6.01538 24.031
6.46735 4.86592 20.4765
5.38075 2.95285 8.51702
5.58879 1.60377 16.5409
5.05127 8.27655 21.7246
5.7405 3.96946 16.5635
6.52957 7.02426 26.6139
4.9895 4.61489 26.9319
7.67109 8.36834 32.0213
5.32862 5.39527 27.1319
7.92025 5.3875 15.3991
4.89091 4.8825 30.7383
7.77112 6.44048 12.7175
6.28823 3.05513 22.686
6.32623 5.47094 23.0596
7.41621 8.13019 25.9835
6.18444 4.2629 26.8181
7.14555 5.79995 16.2965
4.17135 8.13271 26.7599
9.88132 4.59755 6.81695
6.48402 5.27025 37.1876
8.13347 6.55847 35.1732
4.1717 6.59298 7.30683
6.89147 5.55768 24.0645
6.47317 7.90772 31.547
6.86469 4.22963 15.9909
5.77369 0 0