# pn-170911/CsIIA-24-KOKB-1280-1959.psd
# Power spectrum* (dif=0,1,2) (really just |FT|^2)
# NOTE: only the first half! (symmetric)
# weeks: 1280-1959
# 6 clock-days, 1 excluded
# PSD: 1441
69039.6 2.70739 0.044952
2.02611e+06 27.4654 0.0231567
1.84949e+07 384.828 0.0317085
1.06606e+06 28.88 0.0173122
1.37213e+06 83.9019 0.029658
747909 58.9889 0.0255068
621042 62.7348 0.0280884
132479 34.5543 0.0252641
189064 42.1347 0.0323486
70973.6 26.1808 0.0363258
160520 62.0477 0.0715308
76768.8 23.1361 0.0260214
162623 82.8085 0.0908972
45286.6 19.7796 0.0342571
80994.5 63.5265 0.0687165
81491.7 57.6981 0.0835651
48690.2 57.7213 0.116569
56834.9 76.2864 0.152671
35341.1 28.4668 0.0868307
40078.2 42.9813 0.150144
35181 55.4756 0.113321
12853.1 41.6123 0.1296
16678.9 57.6329 0.170438
32807.3 69.9378 0.220643
22429.3 83.0178 0.230115
13154.5 56.4682 0.213009
21768.6 33.6931 0.106818
12298.3 35.1298 0.157519
9750.76 24.092 0.106653
9549.44 47.7781 0.248478
13241.1 37.035 0.178725
10928.9 38.8791 0.167307
12819.2 42.7279 0.195064
12124 40.1359 0.223762
14355.9 53.8808 0.297739
11050.8 54.157 0.25737
13537.3 75.5598 0.435067
9844.03 40.9973 0.294755
7394.19 37.9616 0.306638
7267.96 43.1855 0.308953
9450.05 52.7885 0.376543
5116.57 57.0765 0.48437
3313.47 12.4441 0.105539
6477.36 59.5947 0.561605
8863.2 75.6205 0.675658
5611.53 66.2256 0.642417
9073.14 66.4368 0.701338
6482.03 48.0832 0.466695
7441.35 47.1682 0.541481
4226.58 29.4053 0.350684
8771.21 84.4853 0.942677
8289.15 67.9507 0.87158
2929.11 34.6912 0.432579
5768.42 98.8298 1.3827
5441.07 43.1281 0.613002
3700.42 40.3917 0.713727
4357.89 55.8971 0.882351
2612.91 50.9629 0.826238
2962.72 38.4097 0.605538
2780.89 32.8787 0.603547
3175.27 63.2896 1.05228
3487.72 41.8519 0.630579
3136.36 54.1478 1.02642
6232.36 78.4822 1.73038
3577.88 42.6821 0.733741
3126.01 66.4914 1.26716
4810.71 132.604 2.97219
4610.6 57.0706 1.29305
2577.48 24.585 0.619862
3228.78 60.2153 1.50222
3322.08 51.4202 1.23677
2930.97 56.3348 1.17531
2273 43.8735 1.11282
3215.52 74.563 1.9397
2302.22 37.4624 0.963262
1525.75 28.6634 0.861571
2284.42 58.6349 1.57308
1643.99 38.9987 1.0277
2743.48 58.925 1.88459
4013.5 75.9128 2.17183
3419.15 82.0814 2.33205
2698.91 53.4632 1.79844
2563.95 91.2349 2.95796
821.111 39.2874 1.31674
1351.87 34.4964 1.32373
2088.48 42.8128 1.533
1176.41 28.1157 1.14018
2428.34 66.7484 2.4791
3116.98 69.781 2.42044
2133.58 55.0207 2.18404
2518.83 66.6113 2.78133
517.193 25.8159 1.03027
1922.57 51.2665 2.09448
1320.26 40.3053 1.78504
2181.36 59.836 2.50837
1029.43 18.6273 0.909734
874.268 26.4724 1.25694
1578.02 65.0803 2.77663
1684.46 60.6677 2.6428
520.792 36.289 1.5065
1463.49 57.456 2.64054
1734.98 47.5604 2.15761
833.488 46.3701 2.27123
349.11 24.2196 1.26711
1116.94 48.8242 2.62806
1603.42 57.411 3.10689
710.566 46.7853 2.56209
1128.65 60.3795 3.76142
1355.14 50.7666 2.60858
1592.89 48.4327 2.94071
1128.1 44.8795 2.65967
1007.67 33.613 1.91295
741.864 21.0309 1.3995
845.459 45.1715 2.73314
885.644 41.8119 2.31701
1260.26 55.4894 3.34442
634.482 27.9223 1.65821
1492.87 86.5507 6.07273
436.591 27.5094 2.04
1426.5 58.6193 3.58192
812.687 32.9117 2.60699
1127.07 43.7045 2.91176
1152.09 58.865 3.67026
849.838 46.1767 2.93903
665.954 35.7264 2.73721
236.699 11.8125 1.02348
1166.87 55.1447 4.39316
1772.02 84.2743 6.21318
583.075 27.7546 2.46912
1486.02 107.14 8.59861
798.801 54.1697 4.37135
434.487 18.2961 1.75394
610.537 43.8033 3.48912
1267.28 79.6921 5.89622
1098.29 68.7338 6.18186
1087.79 81.1303 6.68092
901.58 52.6267 4.77839
1147.85 96.6843 8.84619
588.826 46.2688 4.17652
345.59 23.5749 2.40142
594.967 33.4184 3.10969
1035.38 76.0328 7.69986
764.708 46.5887 4.45766
694.966 63.994 6.07509
401.787 25.5073 2.82682
887.326 58.8466 5.4403
919.836 66.197 6.5985
782.575 60.8364 6.56908
827.042 62.9721 6.21011
489.298 30.3569 3.17448
647.932 46.8856 6.03608
736.165 58.5311 5.31585
486.235 33.8599 3.79941
391.964 67.5219 8.10623
575.138 63.0655 6.3913
674.724 51.753 6.16426
539.514 37.2438 4.8448
541.113 47.5015 5.23768
519.635 64.839 7.4049
377.872 36.084 4.15741
334.398 37.5449 5.0595
481.385 42.1791 5.08134
634.497 38.5965 4.304
598.91 43.4231 5.53309
587.524 46.9776 6.09864
387.706 45.1865 6.03335
548.547 41.0737 5.94455
498.11 89.7821 12.3055
346.88 24.3153 2.75614
384.748 37.3369 5.16818
235.079 23.8323 2.85258
307.665 19.5304 2.27547
782.728 63.7417 8.84548
554.398 59.7234 7.9526
396.958 35.3151 4.94026
552.055 68.2914 10.3688
712.14 74.4076 10.2207
673.027 79.9179 12.0729
327.97 37.276 5.88894
305.482 38.8063 6.21919
374.715 37.5131 5.4712
387.146 42.5045 7.38806
139.774 15.6018 2.82119
708.529 82.062 11.7708
312.86 46.1735 8.15227
466.192 56.4638 8.55891
261.002 38.2038 6.07031
382.557 47.0163 7.30102
128.702 29.2101 4.65257
327.682 26.31 4.47537
392.738 51.3929 8.63449
253.094 37.759 7.11072
437.09 95.1572 17.3446
438.143 37.1158 6.3368
262.829 24.2228 4.1741
383.372 56.9765 9.02461
60.0175 17.5302 3.71868
276.652 24.6752 4.14266
420.129 47.9154 8.60503
209.08 19.8836 4.48518
286.752 37.2282 6.60204
516.803 49.0694 8.72036
224.393 28.2027 5.09264
71.8287 7.62614 1.44
506.027 75.6064 13.5501
258.381 43.137 9.42906
756.695 98.2468 18.0841
346.264 50.0586 12.1683
242.308 41.114 7.07232
300.426 53.5917 11.2117
223.883 39.6587 7.86523
201.53 28.2439 6.29879
90.9986 11.465 2.61539
157.469 23.1918 4.83048
181.989 20.6959 4.68599
277.056 35.827 8.87552
61.516 31.2145 7.23044
421.86 50.1513 10.9413
122.085 19.1355 4.82663
137.952 47.25 10.7661
335.747 58.7902 13.294
90.7085 18.5725 4.72166
242.112 46.27 9.86909
411.726 88.3457 20.2778
191.806 22.9346 5.43528
256.447 42.4726 8.9625
261.991 35.3333 8.59373
231.959 26.6722 6.38753
196.453 47.6152 11.444
114.818 6.73158 2.18791
236.125 34.3671 8.39961
144.182 34.0425 7.73747
207.776 44.9837 11.5405
132.144 50.6956 13.5248
287.354 50.0041 12.4783
117.388 21.553 5.47503
98.516 23.1968 7.19277
441.16 61.4958 15.4865
234.853 46.2368 10.7795
313.376 36.638 10.1336
108.61 19.0745 5.3087
186 31.5806 8.18216
276.733 42.1463 11.1696
194.156 44.0485 12.2135
210.892 34.5152 10.8654
191.505 59.5954 16.7285
194.854 39.7543 10.1164
278.785 62.9203 18.7752
227.852 57.9479 17.0414
116.544 24.0242 6.96569
108.941 24.1101 7.00736
78.336 21.8268 6.21341
199.293 35.0654 10.1739
98.1156 16.6788 5.15129
129.475 39.036 10.4036
181.372 28.7614 9.42612
223.779 37.3442 11.2501
129.137 22.1308 5.91046
172.134 27.4782 7.89082
143.842 36.1319 11.3305
93.722 28.3846 8.68324
225.684 57.8887 19.3656
127.085 18.9558 5.62663
216.388 39.4784 13.4765
188.799 50.508 16.9497
141.148 33.9185 8.80818
189.891 63.0996 20.556
99.7728 20.1031 6.56495
107.814 19.9669 7.1134
223.945 45.8321 13.9609
142.206 74.9983 27.1701
197.35 44.2996 15.4188
173.393 35.0157 12.7892
217.397 34.5795 13.2326
102.662 34.7984 13.1982
194.064 51.5318 14.6797
128.698 37.8718 15.2814
324.93 68.8893 23.6325
174.986 32.2835 10.3635
111.234 20.7352 7.52729
127.798 18.8843 6.99393
225.486 58.2353 21.81
76.9067 28.2186 11.8066
138.784 28.7055 10.8322
150.953 26.0922 7.66241
123.543 22.0459 8.04595
191.395 40.775 14.1943
190.379 63.7306 21.9513
110.393 24.3387 10.3285
79.7068 24.0827 9.80133
153.807 36.9739 14.2576
188.609 62.8881 25.0519
100.732 40.4258 15.657
84.3443 18.9056 6.30773
66.4973 17.3881 7.92712
69.3073 32.3345 11.936
43.455 5.05339 3.04101
94.8789 42.4569 15.3508
178.55 50.8369 24.2278
163.891 32.4847 11.4559
51.9132 27.276 13.948
153.672 24.7567 9.08116
175.79 49.6797 19.2302
74.0819 41.4273 17.219
63.894 12.5645 4.82792
139.863 46.1773 19.8904
92.4913 25.0996 11.8524
157.16 30.996 10.1559
122.075 35.6022 18.8177
67.9659 26.0139 11.1593
171.985 33.456 15.257
57.9417 13.3175 6.41546
83.0338 26.3242 11.1647
129.929 36.9269 19.7159
102.396 38.0401 17.091
64.5702 17.9204 8.9178
64.2248 26.5671 11.7085
92.9704 34.508 13.5781
50.6899 22.6393 8.8847
73.8109 31.8699 17.6286
65.5823 11.5273 6.17394
98.4641 18.6582 12.3474
204.005 81.7371 33.1203
60.5025 12.5419 6.93476
76.0575 29.6965 10.8107
102.546 60.4743 28.9245
41.3101 21.1086 9.71543
145.961 45.009 22.5573
123.987 44.5274 20.813
90.5605 37.7301 20.2048
99.9789 41.8456 21.2805
139.076 46.9023 24.9652
155.435 62.1226 26.2154
131.781 37.6641 22.5842
83.0233 32.3578 18.3353
53.1416 22.9674 10.8825
38.3388 33.8103 14.7148
57.5306 15.307 7.95407
23.5613 21.0209 11.6876
34.9445 19.0229 10.6052
89.8696 12.5762 6.23456
82.0455 42.1858 23.4477
78.6138 27.0131 14.7847
113.393 37.179 18.8437
62.7959 28.1901 19.6104
149.845 58.2466 30.5982
70.4932 26.4899 16.8859
97.6605 24.6582 11.9601
108.926 70.1558 37.1524
121.197 53.6946 32.5334
82.5641 66.3079 33.1044
41.8755 14.5019 11.2263
73.4244 14.882 10.8366
103.285 32.7988 15.5917
119.432 38.8145 20.7017
74.3414 24.8992 14.8294
52.8844 27.9229 13.8289
84.4895 30.0561 17.5953
53.4215 23.6248 14.4453
86.367 25.8832 14.2668
65.7519 33.2964 20.5748
75.0509 31.9437 16.9807
58.3106 32.8645 21.4073
95.0314 24.691 9.94653
70.4969 46.2808 29.6011
79.3636 37.3098 26.5274
74.8736 20.3652 11.9272
51.3115 21.7214 12.6577
24.1185 30.9026 21.0054
75.7207 28.5845 18.073
81.1004 25.7953 18.1202
92.0239 20.7128 10.031
104.506 39.5803 23.92
58.835 43.2832 25.468
85.1677 30.4091 20.2506
111.76 42.2731 25.6967
83.5194 42.7166 28.3169
86.5769 39.7661 22.8124
73.6196 25.0956 15.4802
84.8555 27.1606 17.1999
74.3577 23.7921 15.542
78.6445 27.2359 18.1778
43.0711 23.5137 16.2839
73.4207 28.9041 14.6333
103.472 30.9837 19.1324
49.1081 26.7385 24.2423
98.4543 40.7492 24.4455
47.0073 43.4631 26.1044
52.9138 20.5879 16.8435
17.6378 17.0033 12.2559
25.0463 15.9782 10.2819
31.7349 24.7134 15.9277
61.504 25.235 16.0192
31.2915 13.9928 14.3542
87.5129 25.1269 18.0755
27.0044 18.5694 9.86209
53.7616 23.9485 17.8754
63.9745 20.6319 14.0781
25.496 17.3354 15.3294
59.8248 17.6187 9.47607
59.2967 17.957 13.9649
59.5029 28.0064 17.0142
18.144 21.4608 16.3475
52.4937 10.5834 8.33544
34.0029 9.1804 6.82389
46.0796 20.2599 16.234
122.436 46.1899 26.6522
94.4182 49.4532 40.93
72.5396 26.9804 23.6472
40.3945 13.4459 10.8993
45.6285 15.254 8.84936
50.5476 32.8941 23.323
39.7782 18.1817 18.1304
38.5556 19.4 12.5463
33.5887 15.3655 12.4005
74.3825 33.1471 26.0576
36.0989 31.5457 27.2658
57.9673 15.05 10.1767
33.9421 44.6043 33.3259
53.0907 23.8493 18.9538
88.6248 52.06 41.7688
31.2844 33.8735 34.2726
93.5928 47.5995 32.3546
41.6392 29.9254 22.0766
41.7932 19.8219 14.2834
58.3675 37.5201 29.7861
38.4007 25.9297 26.4539
61.9599 26.1464 14.7177
34.238 15.4654 11.62
14.1761 5.20519 5.71855
49.7827 31.6871 25.3559
38.8432 11.4126 10.0516
26.9066 10.6623 11.7592
28.7843 12.0399 11.5193
40.235 17.1253 16.5215
70.5448 38.7785 28.5735
22.3435 12.432 10.2657
46.2105 19.63 14.2982
26.7162 11.1208 12.5711
33.9585 8.25704 11.5806
82.0962 36.8906 23.412
40.2654 14.3687 11.693
38.6456 13.0856 13.4377
60.4213 40.9556 32.3468
19.6387 15.2938 17.9525
40.0098 15.0318 11.4443
39.1102 32.6009 34.2348
60.135 15.1891 7.26207
64.8173 27.6784 25.0702
58.2812 36.9239 34.2364
35.3223 21.2937 15.8933
28.3545 22.1697 26.7998
64.2498 21.7598 13.4608
31.9632 14.7896 15.8689
44.828 33.1961 31.7179
68.1341 46.0874 45.7526
83.762 46.9846 39.4871
35.4692 23.5953 14.7522
26.8222 30.1379 32.9678
53.2685 16.8472 14.0605
24.5905 22.1566 22.3846
46.9185 18.5136 17.1719
68.3313 24.9981 17.8671
30.2455 10.191 10.9689
43.8453 27.3281 22.5885
37.6578 15.3926 16.2296
36.846 25.529 21.8243
40.9454 23.4445 27.1307
27.3956 20.5294 13.9769
21.8014 15.367 16.4741
37.8542 15.4753 15.9616
61.5832 37.7975 42.7424
20.5643 12.1133 14.3016
76.8136 45.3881 39.7696
46.3032 23.6822 22.9601
40.2559 30.636 22.3819
26.7279 26.7957 32.6661
37.2185 15.9776 18.2405
51.4058 33.8808 33.5331
50.534 30.333 20.8775
23.1062 14.9257 16.1419
36.0327 16.1061 19.8299
30.6843 22.9042 20.9818
59.7874 28.2288 29.3656
55.3639 40.9412 40.0579
37.8513 31.339 38.6944
33.0177 12.7576 10.3465
50.9403 28.1342 32.3282
44.6474 24.4815 20.1722
22.2051 22.7234 29.5373
49.3051 25.1889 21.2591
25.7118 10.4371 18.1584
58.1292 23.9483 16.7701
36.5908 17.9113 17.5644
40.2948 20.2377 23.3695
48.8624 18.0778 18.2086
42.6053 20.8169 19.4721
53.7779 36.2255 38.731
41.2295 25.0148 30.6504
16.9099 10.2314 12.9348
38.6259 19.5083 17.2993
21.3786 8.51073 7.56661
28.6209 21.0458 29.1829
31.6334 18.3868 18.4739
23.6902 16.5123 15.9021
13.6616 11.7402 18.9528
36.2159 30.9124 28.7098
30.0152 18.1442 20.5975
35.3747 13.5037 15.4041
23.9379 18.575 20.7051
44.3671 35.0406 35.0479
32.4298 27.7182 28.4569
14.5709 24.9319 34.8111
29.1644 7.5762 11.1837
71.9931 39.3143 34.984
39.1417 43.5272 49.7706
29.1131 20.1707 24.2821
36.6116 28.3195 34.5305
19.236 9.0398 12.8099
51.1857 27.921 28.9601
32.8891 32.3705 40.0238
46.526 24.0891 29.1341
35.0698 35.8126 35.0617
18.4698 15.86 21.1304
46.0605 30.7025 48.4124
45.6813 37.9721 30.5863
32.6237 21.5383 23.8651
15.9875 13.023 20.8062
26.7898 11.4721 14.9419
13.076 19.0128 20.7768
14.3645 18.5276 20.6948
38.9776 28.1261 35.1225
17.1145 10.455 16.0436
39.445 28.4716 30.2756
22.1132 14.9711 14.8854
18.6736 18.1191 25.3484
27.102 15.0496 22.4662
37.8486 17.194 18.9262
42.7824 24.8053 38.1521
19.269 14.97 16.9775
51.0864 21.8996 23.003
32.3227 19.1665 22.5203
19.9746 16.6967 23.7349
27.4088 17.9821 23.3015
29.9388 25.921 22.7329
16.0245 24.2081 35.4378
33.4596 29.5884 37.5785
26.8828 29.5097 39.1615
32.5376 16.5251 17.186
30.785 17.1378 22.5772
14.3795 11.1305 14.0151
16.7172 12.9585 8.44492
24.9493 25.4909 32.2955
21.6709 20.3843 27.5494
15.9751 11.7606 18.6075
36.5853 35.9619 52.7167
29.775 35.1919 37.9592
22.4148 36.1169 51.242
26.1784 17.0604 23.5503
23.508 15.6525 14.0242
33.9108 28.7688 38.1145
18.2797 7.4087 13.1104
23.1199 13.5209 16.7919
14.4339 14.1177 21.8463
30.3527 18.9385 28.32
39.7267 30.3446 32.2675
17.5951 13.6502 21.3025
16.9062 8.42651 12.0214
15.0177 15.7922 24.6265
28.6836 29.2145 43.8556
28.7822 18.8954 25.4392
30.0051 28.1381 33.1872
20.3408 11.9325 20.294
29.8261 21.1977 37.0998
35.6257 31.5455 39.2238
11.3577 10.6068 18.7228
22.8182 9.6417 11.932
13.7642 3.83795 6.32514
23.9034 15.7431 15.0622
32.4882 39.4157 54.5023
16.6598 12.8716 18.3937
15.8606 25.4787 39.9438
39.8434 19.4403 19.2588
26.2319 24.8644 34.6202
15.6701 14.4771 30.5638
30.2404 21.0665 27.0325
15.3238 18.8169 23.9846
16.9626 9.48976 12.7053
17.4231 16.2163 32.9164
25.9153 24.5218 26.2346
26.6241 29.1433 41.6672
8.50643 17.8737 36.0228
28.1029 25.2376 33.8659
18.9207 8.73747 7.59469
17.5151 27.9514 43.5944
24.2059 11.1776 14.8538
18.7824 5.94247 7.82035
20.4653 7.7515 12.8424
17.3669 11.3428 14.8574
29.6549 28.7794 38.423
8.70492 23.5373 31.9406
20.7035 18.6515 35.0909
16.845 15.3194 26.9973
23.5885 18.9663 39.3815
41.1557 31.0656 36.7882
31.7012 24.8381 33.6703
10.7849 10.7016 16.0555
14.373 8.1525 18.9197
22.0984 14.9148 20.567
24.5077 9.85687 17.9684
19.3211 20.9899 38.1003
29.4276 23.7875 27.8515
21.5321 10.8262 16.0149
30.6919 19.5162 25.3114
15.2874 14.2716 23.2495
26.534 11.5664 10.9857
26.8202 16.3078 23.6733
23.2763 27.4802 36.477
21.3195 11.4785 24.2772
22.9595 18.342 18.5014
26.3001 20.4926 34.2678
15.269 7.17979 10.7024
28.4094 17.8305 36.6098
36.6022 34.2008 52.5398
10.7161 14.5092 26.86
20.9826 14.3272 20.5033
7.46004 5.72897 11.9548
19.0037 16.4936 21.5846
14.0503 11.6057 19.727
16.6381 16.4468 25.3868
20.8877 16.8555 31.5255
14.56 14.4535 20.0866
23.6669 26.0763 39.7874
9.68344 14.8071 19.5153
11.3834 11.2896 25.1459
12.5952 10.8342 11.7947
8.42143 7.03689 13.9269
10.0639 6.41999 11.7837
14.2156 12.1426 25.7967
22.9861 18.2551 25.8842
26.7236 27.6006 41.8402
16.9162 11.3714 13.591
18.9832 16.0971 27.0972
15.2485 10.4453 19.6907
17.2866 11.4079 15.5458
9.43004 13.9539 21.1691
11.9896 11.7524 23.2242
31.7498 20.6184 34.521
14.549 18.1221 28.2485
12.2654 28.1327 44.9706
17.7564 17.5932 35.3241
4.46731 15.7546 33.44
19.601 12.0222 27.4441
18.5384 9.34949 8.90241
19.0486 18.0973 23.8936
9.53199 14.5702 40.0368
41.6436 27.5354 32.0951
24.5564 18.0147 33.2492
18.1003 14.8744 28.1288
28.6554 28.3957 32.6937
17.3634 14.9178 29.6454
21.2512 21.3299 32.8454
27.4831 22.1361 34.0868
11.3746 14.5405 32.2702
20.5204 17.2845 36.6364
8.87528 6.30558 18.8193
14.5254 19.3403 44.4306
9.9168 17.1364 21.2148
13.8008 12.4451 16.9646
9.34856 12.9144 34.6469
19.2005 14.2671 23.7906
16.5941 17.9414 45.0771
16.2022 22.1835 29.367
16.7533 21.9092 30.323
20.6016 20.3649 35.6275
7.01788 12.2409 20.1199
5.46552 14.7834 32.7446
21.842 9.5893 12.4085
11.3824 14.6966 30.2563
11.6542 7.39243 8.11957
11.3 27.0627 42.426
12.8882 18.9655 32.7305
13.4572 9.82445 24.7055
12.2396 11.0629 15.2792
7.53137 15.454 33.1658
11.7225 9.24731 16.8745
14.7316 19.4117 37.6374
20.7333 10.1403 21.9919
33.0522 21.8887 35.8084
13.7374 11.6671 31.6279
22.7166 29.3221 45.5788
29.7591 21.5658 32.3431
9.58274 9.20482 36.304
14.8866 11.4251 16.3817
8.89045 9.3508 19.7979
14.8285 19.2969 39.909
12.7968 15.2327 20.8184
7.71038 13.1672 14.9975
8.62168 11.1794 28.288
17.5479 9.9468 15.3916
14.2236 7.63678 15.6227
13.7279 10.0504 15.348
8.73494 14.8067 29.368
18.0131 13.439 17.4271
13.9965 16.1417 29.8348
13.5212 11.5294 22.4484
15.8974 22.7857 53.1228
17.0557 7.81197 16.4364
13.2552 15.4404 31.1951
13.9155 11.6331 34.1137
26.558 23.6563 34.2294
14.2597 21.4446 31.9641
19.6383 14.3768 36.3054
21.3622 18.3307 42.3616
7.78516 19.8323 19.9493
8.50395 19.1881 44.3821
15.9651 12.315 17.7287
9.64383 14.8639 40.8361
15.4071 19.0847 35.3614
20.0649 12.1106 20.0696
14.3464 11.826 22.8282
10.6586 15.3369 35.9619
9.20245 7.91568 18.8366
16.2826 9.38647 15.2358
9.45262 11.7664 30.1075
13.4958 9.51986 12.1112
10.9512 8.76866 16.7113
12.6303 12.4169 35.9898
15.7723 23.1378 32.548
7.50436 4.54839 12.8142
8.62006 14.3466 39.9835
16.6942 18.6358 29.8596
14.0544 10.1672 17.0115
12.4001 13.9718 38.089
14.7812 20.4085 31.646
12.8576 7.55787 22.8928
12.5071 19.9275 44.7591
19.6874 14.0895 32.3194
10.7379 16.3967 32.2082
7.79483 18.3028 61.5101
27.7538 21.4945 35.3097
13.345 18.1493 31.1825
7.44011 8.60471 13.2012
11.2592 7.34188 17.5801
11.5248 25.0719 43.7699
11.1715 6.9609 31.7606
21.3657 11.6618 16.7251
8.696 9.52638 26.0773
17.6907 6.45422 11.8617
11.8819 5.46348 9.97441
11.1256 10.2594 22.9739
16.0875 18.7058 26.5858
13.3699 5.85692 16.279
13.0966 14.9014 36.1616
12.7376 17.2105 27.8546
9.0995 10.0519 34.4909
14.4966 8.10425 16.1913
7.72037 11.2641 13.3003
7.53955 13.7235 35.9232
18.6232 18.6044 45.0281
10.2303 5.52801 12.0122
13.8884 13.222 22.7862
15.0342 12.5115 25.4542
12.2566 16.037 34.4531
6.33464 10.2024 25.7456
16.6542 8.81448 20.9796
8.03458 9.06379 20.7434
8.92607 13.0058 45.6364
30.3319 25.5843 36.4256
15.8707 10.1257 28.2231
16.421 9.47689 12.1563
10.5251 8.05121 16.3131
19.1482 18.4251 36.6803
7.01194 9.61216 28.7902
6.40183 10.8251 25.0119
15.4789 17.7489 28.0322
10.6502 10.1493 20.6414
13.6252 13.9102 39.7547
14.8781 11.3802 22.3462
8.46541 3.78161 12.4398
9.8982 24.4095 53.5614
13.4596 9.03179 26.0525
12.6033 13.5784 26.7388
9.86039 9.31657 30.3284
13.207 19.6246 38.4491
14.3729 11.6733 33.8864
13.794 11.5024 20.7302
12.225 6.35556 19.5152
9.83795 13.3384 33.7501
14.2758 10.795 17.8675
15.0016 12.1076 30.2862
9.93956 11.2721 30.3301
19.3798 17.0563 27.0368
13.3478 14.4556 38.7616
10.8574 10.8044 18.3022
5.69033 13.794 25.4726
4.21481 11.7913 26.5789
8.33131 12.6278 50.531
21.0839 17.2437 27.9094
9.70809 6.62565 22.7096
10.53 17.4487 38.2222
10.9681 6.31425 15.116
9.87627 9.97096 21.9451
12.8596 11.4134 25.283
7.09381 7.02005 17.1342
9.27063 4.46143 11.716
9.31647 8.26411 17.1289
5.77368 5.29557 16.4604
9.30857 9.19257 29.211
17.2009 16.8741 27.7714
11.5675 10.9349 35.7075
16.5074 9.73521 15.942
13.6501 14.751 24.4531
12.8073 14.5305 38.0066
7.51794 5.1227 9.38095
13.9076 22.1811 49.5979
10.4066 10.5625 26.0591
5.69437 12.0225 46.1639
15.1908 13.4477 27.7175
4.50718 6.04365 20.8843
9.17896 16.8152 37.8601
6.58597 16.4421 48.1498
14.8941 11.6187 20.0258
4.87685 7.13685 20.8186
10.4392 13.7406 36.1933
12.2486 7.34241 23.4631
13.8499 13.3234 37.6767
6.95738 9.32443 13.4595
14.5577 8.74549 16.0867
5.27622 3.81736 8.15621
6.65488 9.02816 28.494
5.39477 13.9604 28.3091
9.54916 7.54043 34.7937
16.1757 19.6522 34.7009
13.7169 12.7538 32.9881
13.8647 14.9844 38.481
7.74662 16.0254 29.2579
8.02934 10.273 34.6317
8.23604 4.79054 13.2292
4.85391 11.314 24.353
8.20992 12.2758 36.5756
14.3665 16.4924 41.4174
15.9477 17.1888 35.7919
6.76492 5.81015 9.45771
3.54095 13.7234 37.9825
7.44639 5.02151 37.5843
24.844 20.3879 33.007
7.78245 6.53728 18.0401
10.6883 8.21828 13.3775
5.04255 2.86553 9.54225
5.05256 11.4466 43.8304
17.0314 15.7585 22.7509
7.11019 8.92486 18.6244
12.0373 15.6758 44.2195
12.5838 9.06362 21.8203
6.95444 8.41417 30.51
7.63985 12.617 27.4396
7.84318 5.16081 9.96725
7.72676 5.57832 27.5159
11.4506 14.1293 27.3826
10.104 8.53612 26.8648
9.28806 9.7767 35.2999
18.4575 23.8469 50.3345
15.3349 10.4212 22.3805
9.17233 15.1278 50.9838
16.821 18.8498 32.7605
9.27908 8.85787 22.2723
10.1107 7.82812 23.5964
12.0464 17.8416 51.5594
4.85472 6.48366 19.9663
8.61567 11.4067 26.2314
7.68911 5.7742 23.1547
10.978 13.3984 29.3905
5.52306 10.0607 27.6643
8.20781 9.94452 22.7522
9.12927 8.14325 28.76
6.76336 11.2412 19.3446
4.72163 3.77481 17.8428
9.2707 10.2518 18.1576
7.41588 3.53942 9.32836
9.05931 7.81656 22.2876
11.7 15.6451 47.7695
6.6924 10.5831 21.1709
7.6611 2.78642 17.2512
7.29572 9.85993 23.1202
5.54963 8.66931 23.419
6.13718 9.93857 35.774
15.8499 15.0546 42.4533
10.1464 13.4188 24.4024
7.44365 8.69396 20.7247
5.51049 4.24264 12.4547
7.24085 4.68808 12.5928
7.94786 7.22913 29.2435
4.82602 11.8306 28.8469
7.50813 8.12843 24.8076
6.41898 11.138 26.267
4.00781 8.3949 26.3626
10.3099 12.4285 32.7731
5.42135 7.19782 24.321
8.63218 10.7151 25.5735
7.0496 9.3783 24.9949
7.21289 5.60245 15.9917
8.25112 14.2601 41.6222
9.29842 11.2583 44.6988
6.25385 10.6407 18.3472
7.54151 11.2613 24.0145
3.11379 8.1836 25.3322
6.385 9.2056 36.262
5.89439 10.5843 21.514
7.0415 11.0172 32.278
8.98351 9.31372 19.3663
9.8241 5.22798 15.687
3.03941 3.09117 9.74401
4.63159 2.90258 11.6811
6.54621 9.00689 23.8212
7.66767 5.57022 19.0789
4.77213 5.76151 14.364
9.21387 6.92792 10.1168
4.39633 6.88307 13.5794
6.23924 7.55656 26.8511
6.10189 11.3157 35.279
8.4964 5.89518 21.6598
8.96186 7.11569 26.9627
9.11788 7.83225 13.2398
8.89094 8.82113 25.7305
5.66677 3.20657 5.7877
6.17122 7.04183 17.2875
2.49812 7.18203 12.9956
4.29538 7.02387 16.9479
7.04669 15.9916 48.9185
6.35926 5.06721 29.8975
12.7323 5.66747 12.3626
8.01996 13.5427 30.8237
4.38539 8.16748 37.0292
10.4508 4.7382 14.8161
5.36629 3.82374 13.5623
7.31572 5.41693 31.3076
11.8399 15.2748 32.4224
7.89843 5.77564 26.5718
8.43196 6.41895 16.7482
9.5692 7.36502 27.7834
10.2049 13.7248 28.4886
5.10605 6.00738 28.8079
11.8799 6.24891 22.5526
14.0012 12.5783 27.6868
11.7634 10.2514 19.1445
8.14939 6.71613 18.7177
4.57948 4.55366 17.3305
7.81182 5.60303 13.1355
8.62189 11.3872 42.8635
6.34035 2.76334 11.6319
8.31134 9.92531 22.6288
2.85922 4.86246 24.214
4.58349 7.14951 32.7888
9.28182 10.7713 17.0067
5.88088 5.22125 28.0339
9.75685 10.7426 28.7997
7.12974 5.39251 15.1829
7.99119 15.4444 46.0726
4.45427 7.98515 23.6076
12.6439 10.4333 12.2474
6.33967 6.50355 13.959
8.86838 18.8632 48.8718
4.36485 6.9494 35.5252
9.03129 13.9627 26.4692
7.41048 9.58359 19.7047
2.82934 5.77336 17.727
6.44526 8.91953 39.564
8.0599 2.05773 15.6341
8.0668 7.83564 20.1973
7.43289 13.0759 33.0368
7.93263 7.50638 23.9738
4.68189 4.85569 28.6337
7.00232 10.5279 21.2774
5.47735 13.2696 53.7742
15.107 9.00754 19.9218
7.59559 10.7417 40.4642
11.1764 14.0262 22.9653
9.31044 7.99725 29.369
4.84599 14.6973 34.4001
8.96281 6.61974 16.6315
4.87841 9.47797 22.7176
4.86492 5.11836 16.6291
5.17119 2.67049 21.6788
8.14684 12.3886 32.2296
5.33079 3.76513 14.7894
5.29587 5.1486 12.367
6.21364 11.205 34.3232
8.50635 11.7857 28.6367
8.70531 5.82426 36.9903
11.3549 13.0163 40.5226
9.74588 18.6001 41.4463
6.55041 6.75814 28.9647
9.93829 9.37557 23.255
6.87196 9.99047 35.3913
10.1078 7.5779 28.5093
9.93423 8.98313 16.0815
4.26968 5.87144 22.6439
5.8442 8.4276 40.3786
5.5425 5.24693 15.3901
6.96475 11.0229 45.1887
5.01669 10.9412 33.977
6.35963 6.979 27.2309
5.71429 6.8604 15.2066
6.98344 5.05316 12.7072
4.79505 8.27079 22.1607
6.9858 6.42796 18.7047
8.72025 10.0672 30.7223
3.7172 4.05807 14.2384
4.62521 10.2989 31.6906
6.65141 5.24612 22.9094
9.17975 10.4495 37.0618
6.55512 8.1398 21.5659
12.3744 19.1647 58.2539
5.04382 4.22404 20.3708
6.86839 5.62476 10.5153
4.87749 5.64792 26.0747
3.07578 6.77686 9.45163
5.27349 10.1669 20.1549
7.14353 9.23729 36.921
7.91173 6.77934 20.406
5.60677 5.30614 16.2583
5.7094 7.74153 26.024
4.05937 9.42581 33.7485
6.82535 13.184 35.4889
9.25055 8.7435 18.4354
4.2527 2.15976 14.0776
5.91344 8.7491 28.7662
8.87866 9.5779 38.6786
6.51729 6.82033 33.8808
6.4488 4.89191 13.4386
2.74425 7.31201 15.682
4.87895 8.43694 27.2406
5.22048 4.4381 19.728
6.04264 7.68149 18.8876
5.42637 5.8828 17.1431
5.93629 5.32424 15.0825
4.93954 4.1617 31.5245
9.75973 10.5146 33.4767
9.14102 3.46315 21.6975
9.74783 7.50866 21.5394
4.99714 2.42277 9.87686
5.15665 9.35668 22.7009
8.67053 8.42647 32.5891
7.25324 6.09385 16.6642
6.73335 5.47235 17.3222
6.73527 6.51664 31.6585
3.57586 7.51373 22.4636
5.18433 9.31633 21.8633
7.10293 3.92254 12.2879
4.90215 2.94616 15.3521
4.19148 2.67042 14.1567
7.20362 12.7095 32.7415
7.82907 5.3669 19.1822
5.40816 10.3855 35.4413
8.92313 6.17612 14.1394
2.76971 5.31918 16.2698
2.64368 7.5748 26.633
8.83652 7.6485 29.6514
7.20163 7.53382 20.6284
5.37221 4.08177 22.3086
8.28767 7.42723 12.1129
5.23939 2.28872 16.3231
4.94984 7.7693 25.6545
6.38554 3.19831 17.9667
5.42283 11.8816 33.9948
5.76435 5.4416 12.9155
5.36066 7.31517 24.5678
5.18568 4.31677 13.5194
3.95276 8.21503 27.0322
7.18519 3.54397 19.8766
7.54025 6.86702 23.1655
5.40193 6.0644 21.0458
7.09877 6.98042 23.2367
5.23663 9.20517 35.6155
6.71042 6.17333 32.2454
5.97525 6.73551 28.2915
4.31542 9.2979 28.3938
3.51931 14.8671 24.226
7.07182 7.42102 32.9501
4.22296 9.93342 22.8748
4.1982 8.54608 33.4019
5.99654 16.6208 45.7462
7.48986 8.80921 30.0155
6.43467 14.5796 51.314
4.44727 6.61577 21.9169
4.51734 4.24112 27.9878
8.0742 9.36839 16.0874
4.63169 3.97531 21.7351
4.87585 3.62516 16.5502
5.29753 8.11064 24.4198
7.89025 6.27063 9.24863
4.58865 4.23765 17.341
4.91324 5.34188 23.5889
5.08257 7.85988 33.8764
9.66179 7.44375 19.7699
4.28105 4.68727 26.5747
5.51437 7.56537 21.1087
6.45842 6.41724 27.9556
7.0486 7.29234 13.5614
5.9953 7.15945 25.0278
4.64867 5.08371 17.1921
4.70503 4.47443 25.621
5.96596 9.06202 23.3744
6.38573 3.88866 18.0156
6.73792 6.04427 17.9687
3.95909 5.94947 20.2737
5.83454 4.25166 15.1596
7.20934 7.20402 38.2704
9.43481 10.3949 19.4406
4.95138 8.92668 23.44
7.6898 6.80713 24.7203
6.58671 4.8247 23.1615
4.81637 8.70051 45.2724
5.1479 10.3087 34.4922
5.47455 7.10028 24.9278
7.86847 12.4078 37.974
5.59211 2.9494 24.5376
9.73208 9.03758 21.3732
5.43175 4.36633 21.9048
5.74552 8.39566 18.1386
5.38466 5.52855 28.2738
2.61548 5.14312 15.8214
5.31756 3.3987 22.1753
7.06429 6.30043 14.9962
3.87782 1.52241 27.8601
4.47425 9.32483 27.158
7.56067 11.2491 22.9541
4.54265 7.47049 15.1216
4.49934 5.51682 21.5794
5.19892 2.7415 8.14604
5.53147 3.93973 18.5629
5.96 7.60052 29.2209
5.05174 4.07071 19.972
6.69942 12.727 26.4066
6.12939 3.42761 17.8162
5.23397 7.1465 27.7817
5.0402 2.84391 20.4781
3.11285 8.63963 24.5281
4.68548 8.69029 35.3028
6.19365 3.38076 27.5611
5.05333 7.85139 27.7947
5.97271 5.24654 16.1269
7.32857 9.10158 32.0493
6.06079 7.63524 22.6504
6.06116 4.23914 16.2079
4.196 6.75418 14.5887
6.35454 2.11484 12.2587
2.86947 7.38042 14.9511
6.21878 6.56824 31.2983
6.96246 7.19418 22.7934
6.07077 8.49227 27.0506
5.77185 10.5313 20.778
5.44995 9.72823 46.5437
5.56844 7.33498 15.919
5.11641 4.69872 29.9406
6.43259 7.74379 29.6772
6.42199 7.21601 26.4036
5.04252 6.33307 32.2973
5.29788 5.30865 19.3267
4.22592 7.44813 23.2262
7.45977 5.64062 23.4114
5.07779 5.32163 11.8727
3.60515 2.71711 17.7186
3.78271 4.53093 18.9504
4.42296 3.80654 25.7945
8.39624 6.18022 19.457
5.45629 6.68931 20.6687
7.27199 8.1758 31.845
6.09783 11.042 36.4393
9.33166 7.81484 33.117
4.25954 9.87815 35.6727
4.7875 4.57691 23.0089
4.32478 6.41167 19.6155
7.37815 4.79014 33.285
6.34418 7.50389 19.0098
6.59829 2.09507 20.005
7.96486 11.5107 18.7796
3.86476 5.87369 21.1118
8.17895 14.23 47.3524
5.76548 2.61724 25.5846
4.86588 7.52752 19.8875
5.47509 12.1987 37.5855
6.14248 5.98283 18.7174
4.12777 5.27784 22.8793
2.97177 3.96975 18.8419
5.71335 6.10884 33.1081
5.80651 6.85348 18.1304
4.81916 12.8934 35.8271
5.05264 4.63181 20.1554
6.32414 7.64882 23.9638
2.95671 7.89961 34.7958
7.18492 6.31071 15.7127
4.14639 3.90916 17.2422
3.28969 5.71046 19.1077
5.33539 3.03723 16.5282
3.73545 5.94228 26.6579
6.98605 7.02325 21.2252
4.65818 5.04921 14.38
2.72724 5.6281 18.6641
4.74851 4.32439 13.8189
3.56883 4.33103 9.76772
5.16843 5.83634 30.1696
7.06027 4.50337 6.65879
4.83364 5.25868 41.2093
6.01172 6.61351 19.0025
8.65853 15.8135 60.7142
4.55104 7.43515 26.1104
7.11336 11.8561 50.0009
2.77759 8.10203 25.0023
3.50186 4.31511 9.44554
3.76851 2.17214 12.3723
2.29152 11.6963 39.3382
5.33304 6.77381 24.5768
5.86051 4.58802 32.8601
8.32882 7.63554 20.9423
4.98391 3.46844 15.8569
1.72198 6.86769 27.192
5.12931 5.73659 14.0547
5.92187 5.0019 18.8619
6.24367 5.80418 24.6415
5.01991 4.22413 25.7049
5.76336 7.73346 24.2481
5.35199 4.33133 21.3895
4.11652 7.1973 23.5345
3.21623 4.93994 18.2025
4.29878 7.6077 28.2415
7.03301 4.56326 26.5665
3.80298 5.99051 20.1471
4.54405 7.6576 10.6135
4.77906 3.94911 27.3437
6.12025 5.53663 10.2959
4.62147 2.15387 13.3784
4.41513 2.82595 13.7919
4.77215 6.96557 13.3707
4.95664 3.98655 21.2796
4.62962 6.56 22.5519
7.05137 5.96105 17.8815
3.38948 3.97856 17.3289
4.71863 5.69558 25.6696
6.93215 6.95085 22.8985
3.16317 7.63389 19.8264
4.14287 5.98772 19.271
5.31073 3.70869 22.6909
4.68026 3.97551 17.3383
5.12852 3.77064 8.97773
4.6827 4.44233 29.8606
5.37812 5.55379 11.7959
2.38201 6.03934 24.0189
6.82021 5.4595 23.9337
6.8361 5.62895 19.6478
6.03099 4.17202 18.6455
2.69433 9.63389 39.9435
7.67452 3.9191 8.7955
3.4849 2.8826 29.6799
4.76209 7.61046 28.0214
2.57604 11.4014 35.0745
6.44105 13.4216 56.0678
8.45354 8.53406 38.6411
6.20569 8.97934 38.6765
6.51822 6.04984 27.5719
5.53397 14.4192 40.0013
6.30316 4.9134 5.63799
3.49635 2.92418 22.7515
8.31834 4.86585 16.3523
3.02334 6.30212 28.1845
5.69583 4.96206 13.742
3.54101 3.99127 15.9858
6.2349 1.86929 10.0223
5.05919 7.97038 22.47
4.71792 3.1217 24.9456
9.40007 11.5343 33.1974
3.50388 3.42907 20.2239
6.06404 5.69431 18.1753
5.68562 4.63674 20.2444
4.08034 7.87264 21.5999
2.46114 3.8191 15.4314
4.55223 4.45734 13.8222
5.03265 3.78555 17.4285
5.20135 2.30802 22.0788
3.87983 5.40951 11.0135
4.9822 9.61649 30.0175
5.14221 6.2111 35.7696
6.24112 3.64987 26.2035
5.77575 4.49994 28.2563
6.79063 7.07365 25.0286
5.82084 6.00253 12.3195
4.31077 5.72178 23.139
6.13698 6.35556 26.5736
8.05806 8.34867 20.553
3.04926 5.57651 28.2318
7.9244 5.94202 33.6963
8.66346 7.70119 37.9824
5.16734 10.6342 22.8614
4.31926 3.79511 22.3832
5.76635 7.37306 19.2102
4.31102 6.17784 33.6028
5.54231 6.93192 24.7839
5.86611 5.00121 30.8082
7.02441 5.49871 10.3893
5.52154 5.15416 28.0218
6.75762 8.47403 42.4452
10.7312 9.71105 23.5657
3.00157 4.52688 12.0288
4.00548 2.48221 7.01321
5.00248 1.89861 16.3197
4.84333 7.12898 16.3601
3.54241 6.42443 32.2706
7.0134 7.43812 37.6372
7.20624 2.96625 15.8754
6.47257 8.30793 16.6269
4.57501 3.43573 17.2384
4.3667 4.77519 22.3938
4.54899 6.85069 19.9412
3.26212 7.00321 20.4177
5.02703 2.76171 35.6517
6.94687 7.29825 21.2855
8.89548 7.93697 18.2256
4.73581 7.20046 28.4287
3.49527 6.61686 18.9856
5.80909 4.4509 13.416
4.47752 4.6382 13.2113
6.39397 5.68083 17.3286
3.84594 4.12312 19.8235
3.84948 4.11592 16.0654
4.33827 5.91653 29.7748
4.50685 4.8093 14.5941
4.55296 7.22453 24.6574
3.38692 5.49491 17.6227
2.0764 4.95496 22.2483
3.47938 4.46918 22.1883
2.81331 4.92024 23.3881
5.31073 8.42594 29.9896
3.80455 5.38709 31.3883
5.46507 4.16329 14.5173
2.8672 2.69269 11.9356
4.31832 5.57861 21.2492
4.73653 5.16844 27.0337
4.05256 4.81004 7.14359
3.74724 4.21647 30.3063
4.92667 5.05972 25.25
3.28831 9.9227 35.7963
4.10297 5.89847 5.05953
4.15671 3.5936 22.762
4.81093 4.23232 21.3397
4.15803 3.96278 17.8834
5.48656 7.72357 28.5
4.67423 8.11627 16.2336
4.64811 4.99152 23.2775
6.80926 6.76437 21.0845
5.00543 4.33134 16.5804
5.49479 6.12906 34.2339
4.58735 5.48724 22.266
4.46201 7.20256 11.8347
5.10605 8.88103 30.1565
5.44274 5.39698 26.2587
3.22459 7.54513 39.2992
5.13454 7.35225 19.3125
4.7137 2.57096 26.6941
2.60935 7.57466 35.7551
7.3851 5.93617 8.80549
5.61325 3.25114 25.7996
3.31671 8.09414 26.3619
4.16443 6.22018 22.2744
4.16905 4.06677 17.5983
5.4783 2.92566 15.2339
5.36208 7.13783 34.5171
6.94024 12.7807 30.3946
2.84004 3.28049 13.056
5.54322 6.32811 57.2535
10.0304 7.53886 18.7928
5.14974 8.85769 18.5997
4.58155 5.23208 13.2146
2.86625 5.39005 19.7265
1.37254 8.2678 24.4611
5.11776 4.78333 27.3942
3.41763 6.18716 23.8191
5.26904 4.51282 13.7252
3.66323 3.84436 26.5778
5.74502 3.63336 14.492
3.88956 6.37908 19.0726
6.21754 4.15381 32.4501
7.40495 7.12934 19.1162
3.29117 7.16612 28.7353
4.69365 5.95476 22.8001
3.41779 8.39888 28.0082
5.57088 3.42708 23.1414
1.09331 1.89036 15.5402
2.13771 7.04583 24.6141
5.32638 8.46458 18.8831
3.87913 2.79282 13.0784
5.41625 4.18407 19.9428
4.40363 7.34327 18.7199
5.42783 3.93302 11.0877
4.20894 4.22673 22.9913
5.56174 5.8714 23.9477
6.00023 5.29643 15.5867
5.13273 3.19866 27.7685
6.58647 6.44995 22.1896
3.64497 3.43099 25.3511
4.61742 11.1222 29.3201
5.91013 6.07858 24.1409
3.61965 6.99998 16.6117
4.10878 4.29399 19.711
4.52546 4.32705 28.0496
2.58525 5.65444 13.0762
4.62673 1.90658 8.66149
4.03681 2.28195 16.2766
3.02331 4.73633 34.252
7.52077 8.43636 19.7966
4.04107 2.49392 15.3879
3.25234 6.40693 22.4544
6.41167 7.00455 19.8026
3.24418 3.43138 13.2195
2.19794 3.56106 36.8307
4.14534 10.8444 31.5041
2.91653 7.57454 30.2767
3.77858 4.83972 24.1033
5.5949 7.564 15.2765
4.4005 4.61855 25.3212
6.97015 1.92055 19.3849
3.48963 4.48597 12.8341
4.34741 4.04004 13.1117
3.08877 8.10057 21.3876
3.83166 8.58454 66.467
9.82907 8.38481 26.4704
4.85278 4.79279 29.2162
4.0875 7.96461 28.6138
3.17028 4.19472 18.1319
3.67797 5.12506 12.4003
3.48401 5.05474 13.5367
3.82241 5.88058 18.4972
6.28478 2.71226 6.06746
3.7647 5.40204 27.9683
7.84751 4.41818 11.7257
4.45431 4.45386 17.9305
5.67252 5.80378 24.3768
7.31061 5.37238 25.3818
6.14814 8.74776 22.8523
4.58232 3.15997 19.6297
2.62057 0 0