# pn-170911/CsIIA-35-KOKB-1280-1959.psd
# Power spectrum* (dif=0,1,2) (really just |FT|^2)
# NOTE: only the first half! (symmetric)
# weeks: 1280-1959
# 3 clock-days, 0 excluded
# PSD: 1441
29879.2 0.326982 0.0230444
3.65761e+06 32.9733 0.0237288
8.84418e+06 202.575 0.0235941
94819.5 14.6371 0.0231711
1.46545e+06 112.036 0.0245835
501000 55.8224 0.0265861
114318 28.9628 0.0165561
506787 57.828 0.0356525
253383 69.8267 0.0261981
210940 55.1449 0.00181253
129836 50.3652 0.0308444
87805.9 50.6697 0.0584091
32060.6 15.5731 0.0456645
90321.7 33.1088 0.0314838
111138 55.2489 0.122268
21353.9 17.4364 0.0467382
31789.8 15.0973 0.0146444
74092.8 56.7148 0.049612
36785 36.6146 0.092815
29301.1 89.4494 0.11265
32800.5 38.6073 0.114473
47830.2 61.239 0.108007
61068.6 102.081 0.208656
12305.9 53.1296 0.0934865
10858.2 57.1819 0.123201
8857.19 34.9019 0.166038
40544.1 66.0263 0.208059
7210.14 10.6584 0.0299786
10818.9 16.6786 0.0953097
4634.85 25.6743 0.0736415
4099.98 23.0144 0.09726
25447.4 66.43 0.224151
7770.58 21.1277 0.0826811
5800.09 47.4863 0.232434
2358.65 26.5411 0.155295
16393.6 97.8066 0.685481
21861.4 94.5421 0.704991
3778.49 14.1064 0.120996
6309.08 60.2768 0.477777
10895.3 106.408 0.624702
10625.2 55.6206 0.432059
8163.88 41.1499 0.413562
1980.48 21.2376 0.21435
5645.35 50.4595 0.499298
3413.19 9.77726 0.125325
13237.1 86.4801 1.04327
6732.71 44.4972 0.363033
4441.65 46.4213 0.461413
3656.51 31.5946 0.350257
8903.79 63.5287 0.831611
6230.77 48.1222 0.665556
2728.66 73.9649 0.938346
1588.82 6.30281 0.0422592
8723.45 165.377 2.18627
5250.66 44.5124 0.602556
3101.22 31.3734 0.400878
3767.28 71.9314 0.980762
5058.73 119.593 1.66435
2681.85 88.4151 1.44723
4383.54 87.479 1.51901
2820.1 53.1713 0.997204
510.049 13.2521 0.304596
1804.36 19.1736 0.327336
1106.19 20.8398 0.478619
1545.75 30.8401 0.753629
6326.27 65.4041 1.34665
2291.71 26.385 0.403403
2780.07 23.2153 0.509161
1447.37 63.968 1.50267
2957.02 28.3669 0.493618
4088.88 44.4494 0.974558
714.408 15.7394 0.401932
979.831 22.0468 0.556448
5464.48 141.18 3.62784
6918.14 113.815 2.9967
2350.06 69.5798 1.89189
2255.57 31.2562 0.961873
871.591 27.5951 0.872425
2784.26 68.9407 2.51503
922.219 32.1133 0.887123
1416.31 36.5031 1.11399
3361.33 72.2787 2.59906
1435.93 31.869 0.962743
936.885 24.4671 0.736028
1317.36 38.0995 1.35486
2972.24 55.0195 1.95112
1662.81 30.7935 1.38084
3549.42 121.682 3.83905
2411.4 47.0162 1.56235
1247.04 17.08 0.613775
1846.98 65.9497 2.48069
483.301 17.5006 0.59916
1242.81 52.986 2.29303
918.442 80.4569 3.2779
972.857 24.0794 1.04102
2157.65 119.147 5.48789
2727.57 103.681 4.15633
1865.69 42.9441 2.01257
4108.2 111.427 5.02543
1437.27 45.2664 2.37261
1007.98 48.6901 1.95984
1265.84 84.3568 4.43508
1003.48 16.5004 0.593832
757.681 73.0323 3.80451
3050.71 135.623 6.67548
838.325 25.3124 1.60771
1457.07 65.4064 3.52334
1462.89 45.8196 2.65564
215.575 6.67033 0.409686
2033.19 48.645 2.66057
1000.88 36.2306 1.79245
842.063 25.7223 1.46707
2362.5 88.1034 5.41668
451.274 26.6266 1.77515
260.914 29.1617 1.38814
276.986 19.9684 1.32797
1103.83 55.379 3.87768
2034.47 121.72 7.06516
662.993 33.2119 2.06327
1088.54 54.0336 4.06519
151.012 22.4435 1.44103
251.002 33.0343 2.60988
753.708 43.5837 2.95635
140.719 10.0209 0.631498
80.8456 18.2007 1.43606
398.826 48.4992 3.91487
439.7 12.322 0.908323
1180.38 42.0619 2.88163
849.5 27.5528 2.31994
1211.9 67.7557 4.13934
1219.8 75.2801 5.73423
860.016 41.739 3.36414
753.937 36.949 2.93708
311.492 14.3417 1.09516
1120.87 57.2036 4.40613
1184.77 74.1714 6.7395
1020.79 94.3184 7.86889
325.488 21.7962 1.70289
344.617 46.408 3.92388
630.305 88.8113 8.54495
505.652 32.2858 3.23433
616.863 34.1608 3.10498
224.041 54.4183 5.41603
966.656 41.5342 3.55694
293.07 26.9086 2.92501
1046.21 56.7982 5.81047
698.492 52.6826 4.91719
168.034 17.4124 1.91351
334.443 33.4471 3.44706
676.258 38.5763 3.96552
899.009 85.7165 9.87229
910.979 93.7291 9.32431
949.722 52.6143 5.60093
618.795 44.6146 5.02768
394.912 46.9884 5.44551
323.278 21.4462 2.33847
335.802 47.4961 6.07434
1604.04 146.989 16.8459
396.132 35.133 4.16797
665.46 67.3531 8.04927
690.346 45.5325 6.06438
769.607 113.284 13.9916
390.321 26.7611 3.76287
553.715 44.0482 5.5858
552.259 42.3759 6.32578
458.454 25.18 2.46519
690.617 90.0835 12.3806
398.755 40.0774 5.52176
297.077 24.4935 3.21501
437.231 44.0764 5.56663
739.717 72.449 10.6548
217.079 62.5034 9.10598
643.682 34.9974 4.03736
569.326 53.65 6.22822
295.878 41.4185 6.34237
1348.73 130.804 16.9056
230.138 21.934 3.77278
171.131 9.85999 1.52735
610.667 53.3178 7.75413
551.454 39.9819 6.19493
213.803 42.629 6.20508
351.322 39.8513 5.91315
466.645 44.5004 8.04207
569.459 63.7451 8.7754
352.606 31.5674 4.65537
441.956 45.0303 8.51776
310.312 43.6882 6.88351
199.006 26.116 4.87093
289.723 30.6945 4.06382
561.691 52.5643 8.03348
552.907 52.3624 8.75844
458.741 49.4154 11.1148
474.815 76.6017 10.5259
370.705 89.6975 15.6737
366.765 68.6792 12.575
184.559 19.3221 3.43192
107.374 21.6665 4.01603
131.965 22.1827 3.55774
133.044 16.0689 3.2118
424.422 47.9169 9.56793
469.326 39.1343 7.07026
587.489 80.6978 16.3493
234.506 32.7983 6.52455
138.292 26.1579 5.93366
218.019 71.8095 12.907
237.549 28.2369 6.74167
183.056 35.3958 5.79016
271.313 23.4993 4.8983
127.532 30.1908 6.2259
210.072 76.1317 14.6275
323.291 55.9343 11.7146
366.723 107.82 25.8559
162.728 29.7481 7.67425
409.835 43.1407 9.93025
578.219 91.7456 17.3194
105.693 26.3752 4.65628
58.083 19.7632 4.82244
145.744 32.5074 7.00161
154.677 24.3039 5.0555
264.452 65.2416 14.1291
154.286 36.225 9.07347
213.742 29.9176 7.59197
286.24 24.4259 4.02021
548.148 119.841 29.9484
415.449 61.1329 13.0705
125.743 28.5342 6.77951
150.145 27.9597 6.24939
87.148 42.1651 11.7596
286.341 19.6613 3.46469
383.168 49.5722 12.0494
84.1612 9.31127 2.39243
160.686 40.3854 10.9287
121.929 34.1745 8.51753
291.753 87.0157 22.4283
116.454 6.39859 1.42059
262.711 35.0241 10.3279
120.28 6.40672 2.36036
250.636 39.9194 10.2938
493.404 83.1364 23.0863
266.545 70.121 15.6143
158.437 34.7114 7.197
108.805 27.7103 6.45895
351.06 73.1347 19.1633
125.824 28.15 9.76122
80.5412 8.02846 3.01523
160.012 22.9699 5.50865
249.069 60.4789 18.3392
149.916 52.7787 15.6732
218.277 66.8296 18.4323
120.178 18.897 5.68431
210.895 20.0087 4.82441
201.101 27.626 9.12281
147.885 28.849 9.26272
168.952 40.2678 9.05169
131.377 28.0931 8.773
285.601 52.4132 14.0636
69.3047 21.9 8.10795
239.151 55.5591 18.2825
232.185 33.3696 9.68043
136.879 33.9876 10.6013
147.405 20.5264 6.08848
102.463 26.2978 8.11209
295.964 53.5905 16.8576
146.611 19.4195 7.69132
172.093 31.7767 10.2062
182.923 38.5473 15.0338
118.376 11.5881 3.93881
147.485 21.969 10.0859
255.339 55.0347 20.3027
369.014 107.573 29.6084
116.71 21.3739 9.47489
159.528 32.5305 12.1816
72.1164 24.5951 6.79665
99.3491 23.9659 7.46116
55.0449 15.204 5.35914
126.734 73.7514 26.9244
229.778 33.7221 10.7941
54.9219 22.3017 8.80542
192.982 26.3305 7.17514
178.239 24.716 8.69609
188.996 45.0008 16.9284
106.331 26.0092 8.40629
177.747 34.348 14.2809
109.616 50.2455 16.5266
79.1331 27.337 10.791
100.968 41.9301 18.8077
270.501 56.1548 19.3357
116.823 53.8046 20.2687
80.0611 26.7969 9.99717
79.1749 30.3727 15.654
265.271 47.4669 16.1472
59.4941 43.6848 20.3958
173.234 46.6036 15.3364
260.371 44.5028 16.3568
98.7889 23.9448 10.7977
103.16 11.3917 3.80958
70.8845 37.4512 13.4126
168.343 36.4971 16.1405
210.304 48.7228 18.8827
107.312 18.4145 7.32824
147.063 45.8669 16.422
98.3932 14.7938 6.09319
112.993 30.7232 14.665
120.555 36.936 13.3115
87.2457 34.648 18.6542
98.2899 30.4565 10.8829
33.9598 3.97108 2.21231
53.2337 30.7525 14.7189
40.8276 4.05908 1.99861
90.1462 18.3129 10.6053
183.521 41.1981 15.7373
70.7073 12.4594 8.82989
45.7484 21.7041 6.58371
116.306 23.0495 11.3114
111.9 57.0245 22.3317
89.7861 23.0871 13.3085
72.5014 16.5347 7.35031
125.199 36.2782 16.4538
116.382 76.501 36.1532
186.472 46.411 19.6534
141.373 36.3724 16.8191
134.029 42.3906 20.8214
69.751 13.2343 8.82816
20.5366 4.58052 2.55447
174.302 45.1265 17.7107
109.105 42.2098 19.3526
81.9166 39.5875 19.0813
89.1174 38.081 21.5717
134.07 37.033 14.199
41.2488 30.3031 20.9309
189.741 79.6437 30.2557
55.1678 35.7453 14.8914
17.2698 14.7927 9.26864
126.216 35.3682 16.042
74.0769 22.4625 11.5408
140.859 55.5195 32.2868
125.825 38.7863 15.3303
107.686 26.2853 16.4992
12.7645 5.25879 3.70539
68.9343 28.3039 13.8324
31.2057 12.2807 6.6256
36.9799 11.4769 6.77654
77.2654 21.8249 13.4436
113.047 30.7512 12.3982
78.3696 38.2188 20.1611
80.184 26.789 15.1471
57.8919 15.9873 6.05715
62.9626 19.9249 12.4366
68.6589 14.8124 10.4497
79.6729 26.3357 11.0647
42.6196 21.1046 12.5746
35.8684 32.3988 20.3443
65.5526 24.3088 19.9577
135.384 41.7957 19.8508
83.8211 24.5534 10.6856
79.1343 33.0621 18.2083
87.5051 45.6334 29.2394
30.8802 32.1964 16.2321
71.7924 33.4474 18.4401
75.5849 68.1276 44.9394
148.955 36.4279 17.9559
91.2048 39.3051 24.9088
83.4508 28.4242 16.1932
100.143 20.3822 9.79362
162.806 47.4046 25.447
96.389 39.0481 30.5778
17.6272 9.53724 3.77684
124.919 62.5365 33.9355
74.3934 19.533 14.6366
34.3075 15.1094 8.52567
107.326 36.4924 27.0204
54.2183 28.6301 22.4271
45.3487 36.0128 18.598
69.7954 33.8583 21.8837
61.2759 21.8804 9.1255
53.081 14.2814 9.69059
51.7162 22.4615 15.6309
136.247 64.5437 40.6233
69.8492 17.4095 12.7756
89.8395 42.815 28.7324
37.9298 20.1078 13.2947
71.4181 39.5405 23.1025
76.8839 57.6519 39.8438
68.9001 20.8331 11.0955
21.2929 4.59756 1.6933
86.5488 42.588 31.439
40.8776 22.7119 16.4538
37.8929 11.2722 5.68511
52.7742 28.6154 19.3527
43.3269 17.0395 14.8202
17.5405 32.9609 20.8094
29.2103 18.3011 12.6439
19.6932 9.32381 10.6451
72.622 19.5258 9.39798
14.541 41.3618 32.2816
103.015 22.8332 10.4342
55.6138 15.8067 7.64011
47.1316 22.9226 16.6774
27.1674 21.2891 19.0244
74.035 26.6531 13.4917
52.5166 22.0312 16.2904
21.7726 9.06338 6.00108
47.6787 41.6745 33.2543
53.7872 10.0962 3.32136
58.367 26.4916 18.9492
19.0988 36.0731 26.364
42.5102 26.5744 17.4115
13.5458 17.0247 13.5891
37.4292 12.4533 5.84924
40.2218 53.5859 42.1462
57.0171 36.1063 26.5038
34.457 43.185 45.6239
123.373 36.8406 19.5472
68.4719 25.9074 19.8339
132.41 45.022 33.2574
110.38 62.0479 36.1594
61.4984 34.4731 29.6384
28.7818 15.5895 16.0867
47.6619 28.6406 22.5915
26.9001 10.0361 7.67783
38.9819 20.8874 20.4769
24.7758 21.6626 11.2363
52.8425 23.5171 15.0742
32.1849 12.2422 8.4971
33.1993 27.5222 22.0096
21.7695 17.3256 19.7946
52.9904 15.1076 13.9652
42.2111 26.4521 27.6827
24.3057 21.59 13.7433
53.1145 16.3021 8.726
42.389 32.4814 31.4802
20.8679 30.1134 30.2405
77.2525 70.3101 49.5231
44.9037 37.9364 34.292
34.5988 30.5238 33.4078
98.0763 52.0895 33.5095
59.0175 40.3608 31.137
32.3549 12.1187 12.0907
29.8905 16.9784 18.5489
55.5377 12.1082 13.0354
32.1167 15.5969 9.61703
37.0345 13.7838 14.5367
41.7329 37.7091 31.6715
58.591 17.169 11.2187
23.4304 10.7941 8.65473
31.6958 10.7211 9.76237
75.6136 28.3647 25.6482
25.876 11.3271 9.78493
70.8808 24.4928 18.699
30.2164 20.7402 27.3975
19.1907 9.93017 5.04809
13.6933 6.52669 6.54159
13.0315 8.35545 12.797
31.5075 16.0605 16.8475
55.0585 34.8888 27.1914
26.7286 15.3133 11.7621
14.8507 26.063 22.1342
18.3405 20.2579 30.7582
123.597 44.5313 34.532
17.0089 22.5799 24.7819
30.2112 20.9248 24.6664
144.491 68.9111 49.6494
67.7883 54.5059 61.7381
15.3118 29.6018 40.9751
67.3501 23.839 13.2846
65.4223 18.8621 11.8247
117.106 58.9058 53.0734
44.5925 23.8998 19.6855
50.5859 23.1867 24.039
66.4014 27.8034 26.5956
53.302 26.6073 17.6169
69.7779 30.7432 26.8968
50.2237 38.6675 42.2486
37.5195 17.5724 10.2868
67.7883 36.1933 46.0558
58.993 49.1759 42.0308
28.8909 48.3792 55.4375
43.1398 29.2267 20.77
45.9628 13.798 12.0226
32.6553 10.904 12.2081
73.7925 33.5005 36.9553
24.6082 20.3287 18.3293
24.9903 15.3892 13.2621
9.76978 9.20073 16.4999
38.8027 25.2123 27.9171
28.569 35.0034 25.0893
24.415 21.8143 32.6283
56.7441 15.2106 9.99375
13.0099 5.01125 5.05094
32.1417 20.2589 13.9152
44.1326 25.7168 32.2657
25.7576 5.44122 9.09979
47.0256 37.2023 35.673
33.4493 9.84047 9.03841
13.8955 11.7616 16.3448
34.9233 15.7475 11.3754
31.8218 29.9618 39.1828
55.134 23.7175 34.5506
9.82947 8.00103 6.55832
23.7758 22.3436 24.977
11.496 6.31636 11.5263
51.7621 32.1422 23.1415
39.6588 32.8482 39.7224
5.74575 21.5458 16.4177
8.92304 13.8948 18.3168
34.1496 8.0496 6.09579
19.0523 8.45592 9.0826
50.9017 32.8897 47.2894
10.3056 18.2775 12.3607
17.7484 30.8502 33.7593
50.968 19.0089 21.1927
36.7796 15.0347 19.0806
34.7067 17.0609 19.71
34.8913 12.6741 12.3454
24.1349 15.0175 15.8925
21.8631 13.9789 14.1532
23.07 8.88996 12.4977
22.1003 10.6719 14.4357
19.4568 19.5481 33.5838
19.0687 12.1716 10.1984
31.3471 23.9764 28.3449
53.0935 30.6217 33.7918
19.978 35.7428 38.4442
16.315 9.50548 9.64809
16.9653 14.074 21.358
55.2898 34.7027 37.5401
34.2279 23.5143 30.4463
38.4408 23.9028 24.6384
35.5243 19.0043 16.2452
40.3323 20.7634 29.7938
11.5591 10.5712 19.0521
10.8447 4.62472 18.59
20.0542 14.5996 12.1155
32.1657 24.6555 16.2432
24.5269 30.6815 30.3726
14.8841 19.2756 24.334
4.46256 6.45284 9.36872
27.227 28.6846 38.2212
32.0179 11.8716 15.9494
19.256 14.7207 19.3736
20.0441 6.99949 7.70905
14.9966 14.0117 14.1048
10.2788 15.1268 18.7014
36.2676 21.8583 22.5649
8.69784 14.2325 21.0726
19.9447 24.4922 31.9609
5.45754 7.3553 21.7957
44.8155 37.3568 31.5492
9.00947 18.9428 28.4695
12.9339 22.1786 23.2589
32.7308 17.005 25.0357
30.1898 18.3966 22.2341
10.5024 17.7297 21.185
6.83234 10.7424 12.6338
12.1468 6.16724 10.8839
13.4088 6.77091 6.84788
18.6246 8.0854 9.71086
29.2505 40.0146 61.1928
29.7112 30.6597 29.8263
11.4023 29.9666 38.1232
25.5445 20.1487 26.1231
21.4921 58.5032 89.2093
49.3308 17.2063 29.1262
68.6877 28.7473 17.0396
37.0535 29.3552 49.4761
6.65045 23.7474 27.4086
13.2224 21.0893 33.4479
38.614 10.9855 9.94878
52.8696 45.7958 55.0291
8.76968 4.90905 10.4463
11.1289 5.67093 7.6574
21.7164 23.3718 45.0794
20.9493 16.2327 21.0372
38.6272 20.0132 21.4641
20.8306 11.951 24.581
14.6705 21.7952 37.2776
21.3619 21.3369 35.8745
23.3984 39.7989 33.4736
12.8885 7.03467 13.7865
18.934 13.6719 21.2705
27.0409 14.1454 16.9535
8.62736 42.704 57.8869
36.8579 27.4082 42.6173
28.4326 7.75934 15.1411
44.0302 34.7342 53.8546
41.8375 26.3473 36.2007
9.57444 22.592 29.5112
16.5752 6.17175 17.4416
21.0321 33.8668 32.1238
15.9835 14.125 21.481
9.53656 12.022 19.87
19.3058 17.5601 24.1057
13.2405 19.3212 30.8162
26.8839 10.625 12.5935
32.274 28.3741 48.0426
25.7744 30.8431 30.2864
17.6146 5.98658 10.3936
8.808 13.399 16.7098
13.8112 15.8047 14.1158
10.2724 9.37505 15.3299
11.7894 16.3068 27.4289
14.8741 7.30821 19.5532
33.3982 21.8426 34.4754
18.7573 16.0154 25.2653
22.5312 5.5646 10.7654
12.8024 4.66618 6.21277
2.89652 10.5138 13.0103
10.9245 8.50763 15.6029
23.2119 13.3931 20.926
19.3598 19.2607 27.201
25.9063 16.5576 15.2271
10.3835 10.7552 21.7008
18.4898 8.12222 4.39945
14.4113 20.162 28.1267
12.7725 6.35958 17.3077
23.4909 10.0331 18.4799
24.3801 20.0669 24.2669
18.9383 29.369 42.33
17.2904 10.2814 20.5955
8.18003 7.84163 13.2875
15.2424 22.9454 35.0923
20.4292 2.87771 6.65634
14.1916 12.5432 17.1796
22.3367 12.7361 23.4532
15.4272 5.30789 8.92128
25.5572 12.779 23.4923
9.44601 11.056 10.4708
8.36337 2.81731 4.56208
28.4506 34.748 41.5895
20.2037 24.912 56.5775
22.2821 19.2206 26.3721
10.7558 8.64635 15.3524
12.1333 18.2926 38.2818
13.567 5.6649 5.62162
22.4192 14.9319 18.4081
13.731 11.6256 44.2147
17.9255 31.8458 29.3719
11.0487 3.73339 16.4165
26.4082 35.901 42.6448
13.8609 10.623 13.0434
5.8217 14.7757 24.063
8.63564 10.2641 20.7344
14.6786 16.427 26.8767
4.81699 9.80778 15.2227
8.26484 20.2274 33.8189
29.5239 15.8152 27.7264
14.253 12.6455 12.5992
4.37344 21.6377 43.1376
27.4705 16.969 20.1244
3.52091 8.01756 22.953
27.0196 8.80297 7.48278
9.68664 6.99948 12.6162
13.0734 4.69258 3.46821
11.2947 14.8365 32.5874
8.27724 20.7037 41.0877
24.7221 25.69 44.3707
15.6619 14.2731 19.9787
11.1705 14.9458 35.3018
23.0936 18.8896 14.0449
5.62759 12.2892 27.7404
31.8051 31.7045 61.2564
24.567 8.9414 10.1173
7.05853 8.1817 11.6515
5.55091 20.4919 36.6703
17.9356 2.9146 6.74861
24.0136 18.774 25.8247
7.9215 7.26904 11.7837
9.73573 9.48345 8.19878
7.46885 23.6622 44.1962
15.2321 9.88787 32.8931
15.7581 19.8303 49.3469
38.4156 15.4341 17.819
11.3762 4.94718 8.53272
9.93186 3.02974 16.5587
27.1411 20.6134 21.168
6.29015 8.23732 21.5333
12.1575 6.41599 16.9142
29.0583 20.6061 30.5314
14.9628 7.39837 10.8326
8.53008 3.92928 11.2286
26.7078 22.9309 39.7757
15.0294 10.8465 18.1906
5.0892 5.5725 13.9204
9.12952 11.449 23.9182
12.0208 12.952 30.8876
18.4586 9.63837 10.8322
17.5965 6.75503 13.084
6.48216 3.76795 4.90508
2.97381 8.9785 32.209
36.1478 26.6906 43.4685
5.26865 9.54449 10.5615
11.0798 16.2465 30.2163
18.883 14.3437 23.5811
3.99834 5.43833 22.2702
12.9086 9.77058 10.7917
7.26124 3.14711 10.1157
14.5687 4.96933 12.2762
19.0127 21.6997 45.7511
24.9124 17.3929 29.1211
10.8524 1.92184 8.4781
21.4112 16.7023 25.5601
19.4808 11.5489 23.4419
27.4119 23.9929 38.3783
16.045 12.4452 16.7423
11.3677 14.3702 28.5572
12.7948 7.35681 24.193
9.80171 22.3126 88.17
53.7918 53.9613 73.6716
18.0019 28.7728 34.6251
3.67806 19.6155 41.199
15.255 10.3704 16.9991
9.26377 5.48253 14.635
12.2889 3.13797 4.1094
6.42226 4.21264 5.94596
5.20327 14.4981 28.9896
10.9652 8.05005 12.5628
14.0905 17.313 33.0318
20.9202 10.162 20.5478
11.7588 7.10036 17.9799
9.98147 18.4212 41.4259
4.96756 4.19589 22.8973
19.3284 14.9823 25.3062
21.4959 17.1317 24.6089
2.47875 7.18459 21.6922
10.2316 28.0315 54.2724
22.205 5.40665 10.6208
11.1698 6.8035 20.971
19.8217 17.2204 25.0116
7.88543 5.68164 8.27477
9.64193 6.7582 19.1682
15.7428 15.263 22.9155
6.27424 7.11548 26.0163
7.79607 15.6065 40.5028
17.2101 6.34767 10.1181
10.3234 3.08946 4.92244
12.4143 6.1532 8.94075
10.5932 11.0855 29.0438
2.24301 10.854 11.463
8.163 8.54356 16.0734
8.23192 4.41062 16.7845
17.0606 10.9315 38.2877
25.952 14.3212 19.0897
12.7432 16.4841 29.8424
10.9102 7.12139 11.7619
4.7732 11.1103 48.8496
26.8294 16.8817 19.5972
18.2627 20.3802 56.1494
8.35596 4.70109 7.05635
3.07211 13.445 27.9365
16.5402 4.40598 4.63732
6.62021 0.937297 5.66087
9.70961 20.6826 39.607
10.9897 0.437585 8.69677
13.2562 9.62649 10.3546
10.4391 7.39856 13.8615
12.3274 8.00966 20.0231
6.22688 3.75498 14.8064
13.2607 6.20991 7.70576
11.7546 5.51595 12.931
8.55387 2.91413 6.27247
12.1804 9.63532 28.4145
7.31416 14.1288 41.7619
30.9143 24.8363 32.9088
4.46757 14.2307 36.8348
23.8858 10.2808 11.7736
14.0294 10.113 18.1925
7.53176 6.45055 20.4637
18.5397 16.4516 34.0424
15.637 9.40277 26.955
9.58661 5.33507 5.92717
5.45885 3.43326 9.64116
10.6368 8.68237 18.5763
9.86632 20.1807 35.8217
13.4524 14.9348 27.5939
16.1905 8.36175 26.323
14.6695 22.2822 43.0393
14.0873 5.59932 15.5746
9.10716 4.16987 7.28846
3.98743 2.25809 5.88147
11.2348 1.704 2.57502
17.2047 17.9674 40.4513
8.64744 8.31271 18.0193
14.9081 13.175 33.6706
4.0233 5.17607 27.9664
4.61855 3.83155 23.0491
10.0007 16.979 43.3506
7.92287 5.55857 20.293
11.529 10.5845 19.1619
4.03964 12.1219 20.1256
21.3769 21.5586 42.7998
4.73083 12.0955 25.6189
9.55867 7.17707 10.0169
7.29914 1.23583 10.5531
16.0608 13.297 28.5257
8.38446 10.307 18.631
20.7321 16.6394 40.3841
12.9217 14.4275 24.4273
6.98026 7.34471 14.2048
4.48379 4.03824 11.427
6.9691 10.3631 25.3642
14.1002 10.6033 35.4173
5.13965 9.98041 17.3741
14.347 18.7256 32.4163
5.27528 4.44327 29.2646
1.91606 5.92594 9.28253
2.85299 7.254 15.9647
7.75139 4.94702 5.28694
2.69945 9.28946 21.9266
10.2317 8.38378 12.6296
9.18356 3.47555 11.249
13.0998 10.9491 17.9541
6.8923 4.6931 19.5483
15.0226 15.6001 36.7217
12.4565 9.0803 17.8214
14.6591 10.3602 27.8883
12.1948 19.1096 58.639
6.13446 6.75628 11.957
10.923 16.2964 48.8748
4.73337 8.33827 15.1962
1.37834 8.57144 8.45817
3.08784 2.20667 3.35485
5.13067 6.516 10.1514
7.0875 10.2881 18.4603
3.87654 3.4705 11.475
8.31121 5.45656 19.8516
3.38706 11.8534 22.1868
2.87947 8.56868 32.6288
9.9053 11.1119 26.1148
11.4329 3.60194 20.5062
16.8238 11.1785 21.8357
9.13432 4.23017 10.7542
14.6646 17.2809 37.054
8.35778 5.01931 7.4152
11.2258 9.10548 35.641
5.17812 9.89031 15.6523
6.21603 4.24622 36.0096
15.4903 19.6345 41.8735
14.2091 12.2254 8.20149
8.26565 12.1902 30.9854
4.96937 6.79745 24.5588
10.9671 4.28003 11.9844
9.06728 8.78011 14.129
9.09761 8.29897 10.6537
10.4231 19.3828 70.6996
7.45024 4.71161 8.54247
4.84859 5.64502 13.9789
3.92651 8.81614 19.4112
11.0438 7.32125 19.9148
4.10903 6.73859 19.5012
8.15609 9.98514 32.8136
13.5764 24.0632 50.3938
8.80908 2.32791 14.5211
4.56391 7.62217 18.6555
3.5341 4.41347 20.6876
8.45735 6.86128 9.95827
7.10844 8.32107 33.3893
5.55302 11.0567 16.3432
5.98777 23.6144 62.8238
12.4055 8.11402 35.3243
8.42317 16.5556 17.5361
8.49914 12.321 27.2636
5.37495 6.24003 10.3568
3.09655 11.3591 33.7965
6.2415 7.88485 17.6467
8.81962 8.81319 22.1272
13.2744 6.2792 10.4951
8.57195 14.1674 61.9194
8.56271 4.53895 19.0591
7.48708 7.1918 5.51618
4.40465 6.51264 10.2008
4.47501 8.71083 26.9453
5.70233 5.09556 13.7706
7.81364 11.6945 40.7386
19.1541 15.0059 32.0276
4.94869 4.82202 27.8098
5.97455 6.56142 9.94026
6.0599 14.958 36.3061
11.7614 10.96 23.889
5.46297 7.4734 35.9967
12.5194 12.8588 31.4048
11.2356 13.3595 54.4529
11.7562 5.69742 12.6334
10.8784 9.30689 19.6091
10.3066 9.28818 8.10917
6.01026 9.46021 29.6243
5.44514 12.6332 27.2718
6.31683 12.5347 36.3989
10.2292 21.9411 54.2616
8.23078 4.52137 25.8243
7.97666 4.46217 17.4169
13.3833 7.54127 14.0898
12.2684 12.9895 38.518
10.739 28.4597 51.2954
3.64105 4.30414 24.5711
8.31417 3.75845 21.683
8.68644 6.95159 12.4686
11.9704 5.02218 11.9777
6.64878 5.97975 31.9461
5.55265 16.6861 26.5878
5.67258 8.97472 24.7855
7.17132 14.7648 36.1207
9.78866 3.80167 20.7174
9.57638 8.30305 23.2809
12.941 10.9065 19.2587
7.77048 10.6076 24.5119
3.12959 5.30936 22.4472
8.11831 8.16006 11.4696
9.49491 20.4136 75.7454
3.74809 8.0705 19.023
5.85465 3.56925 7.1494
5.93909 3.44938 5.26225
3.86894 9.44137 31.2026
11.9977 7.18255 20.5512
5.84421 13.2289 39.9954
11.8114 9.22943 14.5456
4.67096 1.72261 8.36324
1.67907 6.36213 18.5724
10.2343 11.4317 36.9093
2.76512 11.4603 17.6465
4.95814 4.47141 11.6706
6.01316 6.59109 26.2772
14.8192 10.4145 16.8185
6.70855 7.57272 32.6677
4.81777 6.16662 34.6966
16.1866 6.71126 19.3588
10.6351 6.93959 13.3391
4.30735 13.2305 35.6558
12.5624 6.10617 33.2095
11.4211 4.51832 9.42032
6.77013 8.47264 19.4888
11.0813 6.29264 16.8838
10.8416 4.92906 24.7057
21.3763 20.8187 27.7291
6.63157 8.4032 23.5227
6.68288 14.8654 21.023
7.67288 19.1078 58.4363
6.21061 2.94117 17.6207
6.69834 6.64331 17.1732
6.57698 5.54602 29.7576
5.57302 4.18775 16.4623
7.05166 6.33443 13.8573
3.60357 2.41517 10.2794
5.86856 0.403402 5.79954
3.42519 4.16389 10.0845
8.75125 1.89291 3.94885
6.48236 8.82872 51.6946
10.8682 11.0328 11.0692
10.0131 13.1639 31.9629
3.03 0.865508 10.1917
1.54869 4.3792 15.3613
10.0328 5.04487 11.315
4.0369 4.82501 13.588
11.7138 12.197 46.2577
4.54058 4.36585 8.40121
7.93615 6.21611 22.5788
5.0364 6.13117 22.4317
1.07556 6.60413 12.7192
3.98606 2.75805 6.70656
5.68961 5.07584 15.0897
7.64373 2.82846 11.8881
6.59163 4.05269 10.0993
6.15611 11.0536 36.1716
7.48049 5.50116 26.547
5.55884 8.98462 15.6072
4.80271 4.88108 26.0334
3.62361 5.37365 6.70227
2.59403 14.1453 60.2088
14.6743 10.9032 30.8893
5.08397 2.73722 7.33984
5.46365 6.90544 10.7889
6.41647 2.41149 15.231
4.07837 6.84041 10.8219
3.69695 7.43624 24.8797
5.25199 5.72252 7.74197
5.73095 5.60809 25.6157
9.97378 9.20848 29.6839
4.0212 5.5075 18.0718
4.96452 1.72484 10.2914
4.10377 6.39674 22.3698
6.81556 4.00643 11.6226
8.50091 2.56626 7.488
9.66239 7.48203 15.9833
10.0485 8.02776 20.3203
3.99734 9.37669 34.804
3.54987 1.7299 5.7105
5.28444 11.1559 31.5881
5.39816 6.1449 11.8784
5.58173 4.24939 32.1592
9.15332 16.673 38.4322
2.72941 8.07896 28.3714
6.51521 12.6557 29.664
9.70221 5.4432 15.0468
10.4711 13.6069 50.1968
4.15964 2.48401 12.8928
3.70657 10.6968 16.8134
3.83705 2.44354 13.1971
4.06666 4.34386 19.4183
6.80257 2.54092 18.581
8.64818 11.0279 16.2255
2.59306 4.3972 19.7397
3.28821 2.02846 3.81648
6.26173 3.19678 8.65543
4.48271 4.61044 32.3837
6.63973 11.7127 34.8318
2.31287 10.2448 29.2413
6.34268 10.7789 34.3724
11.0894 6.38735 18.5562
6.63511 10.4579 21.8689
5.39195 0.497771 5.13139
6.85441 10.1288 26.3357
2.68187 6.46371 21.5418
3.63585 5.0229 21.6267
6.01646 5.57003 18.1635
3.28964 3.50112 25.2125
2.61542 5.35272 12.7562
6.11306 2.49132 9.55494
3.65732 12.8625 32.5451
6.04855 2.62296 20.5166
4.87477 10.4608 18.7099
6.39618 5.04494 26.9632
2.03497 10.5869 16.8146
6.18406 4.018 34.465
13.0209 11.6949 9.199
4.29618 6.02134 10.3085
3.54979 3.45536 12.3673
4.77936 7.00691 22.0896
3.35129 0.52369 9.28914
2.93275 6.83327 10.6755
5.37305 6.77995 16.1321
6.8765 4.81439 23.4664
4.95426 4.35206 24.2833
3.99369 5.1467 4.48093
3.29815 7.23653 29.6942
6.73446 1.76981 10.0364
6.87063 16.7009 31.2074
3.89249 5.00246 26.9058
5.40159 4.09907 21.1671
8.11393 2.92209 10.9814
5.0302 5.46971 22.1285
7.40514 6.48735 29.8805
8.6557 5.75391 10.9421
5.14782 3.91782 26.5698
9.43271 8.18548 11.8793
5.94543 4.84804 6.25749
5.02097 3.4283 18.578
1.29198 7.72492 20.0255
8.01457 3.09149 16.6747
2.31398 2.64535 10.6078
2.9449 5.91493 6.76248
5.11486 4.0794 6.59991
4.07639 6.00797 28.6279
4.96316 2.75994 7.25346
5.80161 0.994691 3.11253
5.12899 1.48375 12.4796
1.29111 6.57477 19.559
5.89048 8.48883 35.9193
7.38784 9.30892 22.8797
5.82973 5.67794 19.8163
8.57591 7.18394 35.3471
10.2531 0.800376 12.2449
10.135 5.60486 12.2626
6.83673 2.88401 6.35461
3.81662 3.50341 17.1581
9.05186 4.46989 10.0085
6.86115 3.07156 14.3233
5.07305 5.19242 13.315
8.13713 3.49955 20.3006
7.15344 10.5405 38.3883
9.61582 5.01328 1.94625
4.59716 6.29333 29.3219
5.17202 7.88626 30.924
9.25252 9.93535 24.9832
5.11358 2.70027 13.3655
6.5059 5.05959 14.5491
2.55432 5.64327 13.5299
5.15121 2.46184 21.3188
9.07263 3.70234 5.46674
6.42226 4.12016 6.74368
5.91005 3.93853 14.1654
2.79497 2.50219 16.8911
10.1891 6.31324 14.1004
5.69652 6.76729 17.2046
3.30633 2.94395 10.386
2.75061 2.27031 11.9355
5.91524 8.55789 27.8056
6.59561 6.52495 34.6741
3.15634 8.56326 29.588
7.48521 9.04139 28.3228
4.4492 4.89999 17.4422
9.41931 2.61614 4.13124
5.8786 12.3136 60.4878
6.27749 5.23206 11.3426
3.91179 5.6268 41.2022
9.8833 9.52039 6.19751
6.35811 5.38867 22.7562
2.99719 6.52473 15.0508
4.89782 4.79131 37.2367
13.0388 7.87167 7.391
4.69308 4.1113 14.0096
8.77714 7.5999 14.2493
4.6685 4.13417 11.9103
2.62198 0.844737 4.39378
2.84733 4.90805 40.4258
6.8253 6.34811 20.1769
4.57978 7.37583 16.4554
2.70872 7.41813 47.4914
3.24083 6.96474 4.16969
2.30601 3.8591 6.83865
4.7767 2.75857 13.0999
2.40348 2.99645 5.96795
5.20975 3.38495 16.8484
6.659 2.44868 13.389
1.96406 6.30705 14.7143
4.29988 6.39786 11.1659
5.48771 1.14768 11.5108
5.39879 5.33064 21.3872
5.49241 6.78216 27.1108
9.52537 7.90145 25.5625
6.54681 2.38224 25.0767
6.08771 4.86852 17.0838
7.717 4.19579 8.71947
6.68832 2.90733 12.8385
4.9778 5.70477 21.147
5.97847 1.57525 8.18884
5.4308 3.0406 11.2071
5.80937 4.24929 2.56324
3.97441 8.36944 43.4944
8.22463 7.04427 16.6878
5.3646 0.872245 4.74309
4.9811 5.75015 33.525
8.3127 9.0046 11.4889
4.10376 6.60964 27.4913
5.26174 0.908751 8.01643
3.90927 4.95372 7.2179
4.73471 5.23726 19.0671
5.61345 3.78961 27.7043
9.23407 4.27971 15.1868
7.64497 5.13705 8.90153
6.37088 4.16383 11.7822
5.28034 5.98054 17.2232
7.01091 6.18338 13.9023
3.63311 7.95649 33.1426
2.68877 9.00222 59.9301
3.89862 6.56296 11.2368
4.39026 1.0171 8.33001
4.82299 6.12668 31.1764
7.27062 8.39915 21.7056
4.88328 11.6605 40.6313
7.13637 4.20098 32.6443
6.57773 6.99128 14.4362
4.53374 7.08532 47.8341
9.39658 18.1555 32.0161
3.30115 3.57096 10.5574
3.88829 9.56841 51.5494
9.4509 7.41171 5.77669
4.31563 4.61671 26.5217
9.18181 4.75713 10.0159
3.61471 2.99825 2.05638
4.34115 3.86178 18.9617
7.53068 3.67872 7.80366
5.80964 8.23625 21.5727
5.4736 7.01534 30.335
4.0009 4.09854 12.5758
2.52838 3.37206 17.5102
4.85844 4.36361 18.2232
2.11201 2.31845 8.6044
2.55247 4.11883 7.70667
6.12872 3.74698 22.7337
5.21372 2.18515 14.7509
2.97705 2.39368 10.712
2.74721 8.09458 10.0704
4.03238 4.9394 21.0155
3.42257 5.68663 22.0118
8.04328 2.41493 12.7571
5.90005 5.90342 11.0686
3.50981 3.55159 18.0058
4.86675 3.85128 11.3064
4.31089 5.47459 21.2193
4.65523 2.80151 3.01696
3.54661 3.45763 17.3964
6.56671 4.51822 27.4938
9.28272 7.94958 27.972
1.73215 3.77969 15.8159
4.87669 3.72239 9.10755
5.17618 1.75705 3.20696
5.017 2.73699 15.4519
5.3146 5.37545 32.1197
4.99159 7.69853 20.4414
6.96827 2.49054 16.9562
7.22655 8.09184 24.0708
4.60687 4.27531 11.6664
5.33939 5.81389 17.1794
4.8816 3.04278 9.69789
3.01653 3.79215 17.586
7.76326 7.54562 31.2488
5.56546 5.81489 18.4721
6.45552 6.91094 11.5182
4.00168 3.65885 13.0157
3.79657 4.11989 33.0659
7.1718 10.2156 28.9999
3.10781 1.95597 27.06
7.40843 10.6371 15.0081
3.74358 4.84263 29.6094
4.46723 2.42672 11.4577
4.79805 3.88388 16.9637
2.04411 5.64216 9.70456
4.01988 2.61677 8.17877
4.3221 1.89286 11.8486
3.83405 3.52546 12.8289
4.96505 2.2383 9.35732
5.01586 3.94065 22.7751
3.50927 2.61751 29.0145
3.28063 12.9612 16.1623
5.74232 2.54616 14.9006
4.1423 5.08059 18.9376
2.98883 8.75935 12.7687
3.87392 3.88426 21.3755
5.24658 1.43047 17.1018
6.1101 7.80241 21.5591
2.27972 7.48829 23.8193
2.49264 2.24592 7.39325
3.02507 5.95917 19.1368
6.28666 4.06671 36.6818
10.0674 5.02784 19.8597
4.74137 3.90724 24.7455
6.64234 5.22943 22.2422
6.76269 4.53337 14.5067
2.90304 1.65631 9.01827
2.09804 6.33617 16.6604
6.76091 2.53214 3.49375
3.18043 2.95118 13.431
2.16546 1.32328 13.7289
2.80615 2.37636 22.4796
4.57145 3.06213 5.34634
3.75946 1.91574 28.5921
3.46295 5.6344 24.144
2.79104 6.49248 17.463
1.17338 6.91256 12.1293
5.00755 1.28138 24.9117
3.6141 10.0033 9.24436
3.64622 4.70437 27.2202
7.72999 9.22533 18.7785
5.02351 13.7607 41.5041
5.82872 1.932 23.8221
5.70165 4.82977 14.2571
4.11785 2.45314 12.2351
2.94799 5.98301 9.64271
5.24066 0.816166 12.516
6.39463 3.40166 15.214
3.56239 1.79566 3.84622
4.62363 4.35863 19.6263
4.8985 2.31974 16.6371
2.92786 0.932269 11.7736
2.82301 6.78503 10.9162
3.11264 7.0806 16.9859
5.29512 2.01877 35.7075
10.0415 4.60422 12.9126
4.83668 10.7108 17.6496
3.72022 9.31749 37.3788
8.24817 5.96647 24.9071
4.31623 2.08175 5.08175
3.71902 3.80915 27.7397
4.79647 3.93818 14.043
1.98845 6.08707 15.0955
6.02197 0.896752 4.86363
4.45809 3.29711 15.2566
4.89157 4.52997 16.965
3.74091 3.16451 11.3459
3.11719 4.84044 32.0416
7.89207 8.93716 22.432
4.39222 3.38191 13.8661
4.38213 7.50361 35.8049
8.66704 9.24931 27.3981
4.14154 0.580325 16.5964
5.06797 3.57084 8.57229
2.68933 1.91875 5.55493
4.01659 2.39261 9.7182
5.00156 4.89483 12.4285
2.86642 2.34579 4.64258
2.20584 2.80149 10.6497
4.62617 2.50046 5.70646
4.01268 1.95691 10.7325
6.28021 0.866425 23.0847
9.375 13.193 41.6551
2.81672 4.61495 18.3881
1.83485 7.04919 11.6113
5.4407 3.22975 27.0803
7.89129 4.12643 17.4573
3.66621 4.35614 12.3813
6.6798 3.94593 29.139
8.23632 7.01807 5.56933
3.70873 2.12885 9.16542
4.36989 5.25281 36.51
3.23441 3.08126 1.76906
3.47733 1.46515 18.1941
5.47416 4.14143 10.7236
2.01911 4.22651 3.26392
2.75423 5.3898 27.1581
7.0777 4.11884 7.98084
4.03291 1.15752 18.3734
7.72141 5.52147 4.91445
4.13287 3.92538 25.8548
2.68082 6.19787 18.2361
7.40324 6.56276 35.4414
5.08719 8.85366 23.1611
3.27033 2.50114 13.1584
3.25241 4.90452 47.4424
3.15308 17.1996 33.1264
4.9336 1.6738 10.1472
3.69992 1.23483 7.81379
2.38425 1.58192 9.15236
3.64649 0.231721 18.8891
2.66543 4.42 16.3402
4.54893 5.21567 21.3413
2.94213 4.65275 8.09941
4.70396 1.93987 10.5758
3.59608 5.24953 33.2397
6.72849 3.58808 11.1631
5.72913 8.93346 20.5038
3.2894 3.63425 23.2106
5.20726 7.03342 22.4327
5.82523 2.43722 20.6945
6.01229 5.04641 38.4418
7.61775 13.5793 20.434
3.28063 1.98939 5.96697
2.25201 5.27169 26.5389
3.52269 6.66614 17.4228
3.98596 2.25751 16.0201
5.09958 2.77672 6.92203
3.2884 3.23376 11.629
4.54575 7.88961 21.1536
3.22805 0.615666 8.62641
4.66644 2.30384 8.52062
2.6354 4.55806 6.39726
3.73703 0.813072 7.22325
3.01788 5.78274 65.3343
7.3131 16.405 10.1749
4.45154 3.60781 16.5989
2.12368 7.58472 44.7241
11.1796 3.302 7.19612
5.25077 3.98822 25.9566
6.30192 6.06218 23.4492
3.35473 9.01428 26.5002
2.99987 7.77861 20.1999
5.99394 4.61629 33.1361
4.82048 4.13386 16.3749
2.69946 0.53701 17.2124
3.50557 6.76538 10.1369
3.54502 5.44378 26.1349
3.8649 3.22604 1.50888
3.2345 1.77378 10.9492
4.54301 5.09482 31.8336
2.68381 7.76456 20.9198
7.1866 1.69571 5.4722
4.89038 3.93975 17.8099
4.68889 5.27622 15.2675
5.13187 3.30874 13.7623
3.95634 2.55096 28.685
7.87072 6.88043 8.47759
2.38853 2.25588 22.365
5.32281 6.84008 17.3769
4.05198 2.59969 12.5003
5.44564 3.32168 11.9284
6.91176 5.85773 15.9114
4.10113 9.4301 48.7131
4.05707 3.92722 37.1862
2.62307 6.26814 8.20784
4.55618 3.58875 11.2707
3.75241 3.04206 7.83282
3.91024 7.22452 22.8652
6.46858 1.81996 17.7222
4.62866 4.18489 4.36625
4.30186 5.5184 14.2808
4.54716 2.76406 17.4017
5.28118 1.56641 13.9042
6.74422 4.55262 16.3674
3.52163 1.65378 7.85373
2.33613 2.77556 4.47075
2.83728 1.91297 17.2205
5.57656 6.25512 27.6377
2.62817 3.31555 7.29281
4.32771 1.40193 13.2377
3.43709 4.17642 5.91965
5.38056 3.03056 23.0177
4.34128 5.95835 17.3021
3.63328 3.99282 15.7686
3.42691 2.80591 8.3687
3.015 4.1661 19.9312
4.49382 0.377733 14.1099
3.25656 2.59521 7.25693
4.64293 3.46188 7.41858
2.91822 1.14462 11.2465
2.35601 5.52816 10.2692
4.25671 1.25005 7.55369
4.50282 2.67207 3.902
3.49639 0.914998 10.835
2.94313 3.1766 29.5572
3.64448 6.9751 22.595
7.06003 9.19569 23.1848
5.83 4.74219 19.9098
4.72162 3.31741 11.9621
5.95217 4.62921 8.69202
4.97164 3.95999 43.5301
7.76371 4.6128 8.2359
4.33484 4.04745 8.66289
4.01157 2.18076 11.7782
4.60918 1.29782 5.48845
4.36886 1.97096 7.02315
2.174 1.75309 14.65
3.88502 1.44868 5.66321
2.91308 2.7689 14.8252
4.7226 2.76739 2.63691
3.84882 8.62501 45.0256
4.65037 3.33648 21.3079
4.18778 5.35457 11.1215
4.52363 7.47402 26.806
7.86104 3.08174 1.91055
2.60862 0.805699 6.66267
2.2687 2.20129 13.1168
3.60193 3.47233 11.1114
4.80907 5.52393 15.5501
5.24741 1.51929 17.5322
2.9795 5.41156 11.0445
3.86839 1.21382 15.6734
4.78538 5.37961 16.2698
6.34034 6.48348 26.1791
2.88085 3.38517 13.0018
5.21881 4.95898 17.8881
5.67566 3.7723 12.8594
2.03894 3.19905 8.16454
4.19096 2.71986 12.668
4.61033 3.94493 21.3569
4.50402 3.50428 8.03624
4.93427 2.50446 12.3701
3.0079 2.94108 8.27025
2.68434 6.49334 23.3099
6.09775 1.36479 9.61021
5.08615 3.02693 11.8123
4.44557 6.35114 28.9532
6.52427 2.7925 4.22995
4.76506 0 0