# pn-170911/CsIIA-39-WTZR-1280-1959.psd
# Power spectrum* (dif=0,1,2) (really just |FT|^2)
# NOTE: only the first half! (symmetric)
# weeks: 1280-1959
# 5 clock-days, 0 excluded
# PSD: 1441
14625.7 3.65703 0.0188181
3.49307e+06 55.1253 0.00143219
1.84767e+07 591.583 0.0121568
3.16648e+06 39.6946 0.00205312
1.66693e+06 193.112 0.0153192
1.85457e+06 115.995 0.0172905
300772 19.3491 0.00487408
434983 26.2544 0.00633496
261647 45.7645 0.0159377
304102 69.5742 0.0277203
262206 67.9882 0.0282027
243158 51.9924 0.0257216
167439 42.6491 0.0270169
78441.3 28.8099 0.0265382
125834 98.4206 0.0852421
58586.5 46.4273 0.0467107
86946 93.4143 0.117838
116908 69.252 0.101971
65457.1 18.2231 0.0323351
106578 107.379 0.183215
34104.5 28.6591 0.0572112
40464.3 37.2896 0.0833492
56838 90.5889 0.200381
26488.3 126.509 0.332284
26245.7 29.9683 0.076549
24965.6 95.6079 0.285467
59932.7 62.3169 0.215257
19088 40.8033 0.149378
4541.79 22.9747 0.0849545
14798.2 51.4536 0.199525
13899.5 25.649 0.112319
21901.3 59.7714 0.277759
22057.3 47.844 0.215907
27393.3 81.7919 0.430275
18143.2 104.33 0.601045
13920 21.9566 0.11409
10875.1 64.6626 0.398437
17531.3 119.573 0.807156
32754.8 135.722 0.945301
16751.6 80.1074 0.587551
19916.3 62.5284 0.44796
13427.6 85.9697 0.711085
9400.42 37.6758 0.276542
15885.2 69.3206 0.58063
17159.8 51.2146 0.470714
16275.5 99.2378 0.953792
8945.96 28.4204 0.287201
10298.4 61.9638 0.647679
5223.32 66.8301 0.712033
8592.54 90.5523 1.04789
11020.3 54.5338 0.67827
8707.21 39.465 0.485734
7584.95 36.5173 0.480752
4738.6 11.2053 0.140894
4096.38 44.6489 0.598195
3674.58 40.2059 0.600223
9686.08 69.0496 1.02522
5208.78 96.862 1.4783
2137.47 27.327 0.439012
6684.11 48.5088 0.861239
3129.55 67.341 1.12951
5535.14 130.33 2.28873
4744.92 35.988 0.695999
5300.62 49.3531 0.886092
1656.78 43.5925 0.864625
2758.08 19.7929 0.434054
4693.59 24.4443 0.487889
3281.39 26.8889 0.573178
3711.24 77.716 1.73193
2351.98 24.7247 0.547687
5376.54 81.6613 1.97588
3042.65 27.098 0.634218
4328.66 31.1935 0.824749
4008.24 77.0383 1.99464
4666.01 51.1619 1.22444
4424.82 86.2327 2.31121
4457.35 65.3587 1.67591
3890.7 48.77 1.41081
5980.23 99.7676 2.83603
4024.86 94.4828 2.98709
3013.69 56.4236 1.53059
3186.04 38.4715 1.20669
3444.72 50.0726 1.5413
2655.32 59.7233 2.04793
2650.62 44.5996 1.45624
1267.76 52.6214 1.81765
2835.29 40.3532 1.40335
1139.32 25.0553 0.98236
1598.98 24.6906 0.872374
3062.9 68.5231 2.49735
3163.61 53.4362 2.09767
2735.84 52.6839 2.03503
4050.52 56.4871 2.30313
1563.65 27.8302 1.23633
2677.68 62.4049 2.57985
2415.94 39.9642 1.64047
1745.42 30.6034 1.39749
1699.49 40.244 1.81345
4136.53 84.0868 3.7932
2740.07 112.638 5.12043
3540.36 78.4944 3.76738
3018.54 50.2729 2.4852
2998.37 58.9195 3.09654
1041.58 38.8623 2.00866
2266.13 94.895 5.03392
1488.17 23.8072 1.21373
1303.53 35.57 1.9575
1344.98 47.7771 2.63101
1084.14 50.9984 2.69048
1495.91 31.9004 1.77272
1245.22 67.7495 3.75761
2172.41 66.3345 3.95374
2962.13 82.44 4.91221
948.019 38.4844 2.3982
2552.41 95.0108 5.74431
1500.45 56.2974 3.73266
1140.61 42.1675 2.54841
875.643 53.4924 3.48504
1181.77 37.3109 2.33798
417.678 58.0586 4.00404
2178.2 45.087 2.98308
792.793 70.655 5.07063
1375.71 32.12 2.11478
1444.73 39.9872 3.07193
855.708 65.7768 4.86653
823.268 50.0337 3.71922
2183.8 83.6149 6.36812
837.907 24.3739 1.58376
761.054 10.0607 0.803979
2029.47 130.604 10.3471
1087 10.2817 0.70776
770.966 5.73745 0.485218
828.695 26.4408 2.26406
1072.01 30.1246 2.67791
1533.51 87.7491 7.06901
1008.27 72.2993 5.99345
920.915 41.7843 3.79971
657.596 65.1984 6.30932
1476.22 50.7845 4.2522
1818.21 92.1688 8.8724
697.231 66.6164 6.01005
1343.49 95.8125 9.50196
1574.78 58.0925 5.13661
1617.2 91.2834 8.77781
1116.15 49.5936 4.77746
917.873 40.8848 3.84288
299.726 25.6525 2.67317
1028.31 41.2614 4.06386
946.117 32.3052 3.38074
208.931 38.9102 4.07088
1089.96 63.8418 6.73754
554.141 56.0876 6.71149
476.725 38.3554 3.89861
863.199 46.1114 5.1262
1750 69.7654 7.6802
639.285 39.5556 4.98733
675.171 48.6768 4.95283
1016.71 56.1996 6.39276
505.655 41.8261 5.42434
556.524 22.6934 2.74011
846.474 67.2586 7.71513
514.541 21.6325 2.88281
206.152 41.2234 4.96973
573.578 35.8243 4.4164
264.25 27.4041 3.59842
676.585 41.1695 5.53573
839.87 55.2817 7.28946
719.355 43.2533 5.42054
1643.68 131.643 17.9324
620.028 34.5653 4.10914
672.81 54.3914 7.64947
646.485 54.3618 7.24422
174.379 15.4329 2.31182
360.038 24.5184 3.77416
388.989 36.7101 5.5491
408.936 9.98534 1.61191
785.258 35.1899 5.65783
513.944 35.6173 4.59313
639.434 40.8584 6.69894
554.505 45.1797 6.27561
488.501 43.1917 5.77651
302.372 45.6596 7.07266
650.172 44.7586 7.00133
702.3 34.3532 5.12302
371.492 46.1287 7.70244
690.524 45.2753 6.88537
235.619 29.4807 4.44939
381.625 38.912 7.01568
402.246 34.092 5.99288
719.85 42.473 6.53048
403.51 39.4731 6.30061
269.287 67.2845 12.4494
511.147 22.679 3.91178
402.752 41.962 7.57522
629.98 75.2276 12.4502
510.08 35.1904 5.55919
520.633 50.5909 9.00285
526.705 81.4683 15.5313
364.421 8.17976 1.90168
677.223 41.7956 7.80957
255.771 55.8698 10.9368
819.833 66.2347 12.7623
348.879 31.3126 5.3125
319.351 43.4943 9.43915
270.075 42.3808 9.26564
459.893 39.3506 6.16952
323.419 45.2098 9.87652
462.147 29.486 4.32508
444.167 87.1011 17.7666
773.009 80.4037 16.0605
241.38 15.8432 2.89344
230.061 48.253 10.6339
313.177 23.15 4.96279
414.903 28.373 5.8903
367.702 32.1615 6.59969
306.943 20.0741 4.70013
305.473 19.6496 3.76237
335.827 31.9625 7.95695
414.557 61.8163 12.3959
331.735 48.4065 12.7152
517.099 34.4663 7.14438
166.963 8.43798 1.81775
354.03 16.3682 3.56361
204.551 22.3886 6.82436
832.403 62.6817 12.5836
298.658 45.9177 12.0653
368.994 21.0183 4.60462
462.862 61.1061 14.9785
332.674 30.5597 8.1472
804.196 60.7718 13.9436
385.541 55.1218 13.6165
219.537 41.0421 9.67602
485.763 56.4223 13.9382
234.798 31.0358 8.64206
463.364 26.565 7.37508
157.04 16.2267 4.78516
484.952 60.5453 16.0391
335.728 29.6249 7.80212
223.5 41.9627 10.6793
466.725 86.9602 22.7363
314.707 43.7347 13.3614
430.424 27.9136 7.71531
292.359 47.3428 13.3132
277.423 56.1602 13.9327
281.002 23.7459 6.3294
75.743 24.2396 7.05658
326.395 53.9993 14.7243
487.21 31.1335 6.75965
398.114 49.2335 13.8778
258.857 23.4324 7.29846
287.322 26.0477 7.13047
157.236 10.5694 3.18991
436.289 49.5665 14.8229
168.042 35.182 13.1972
361.56 58.9739 14.2752
449.836 62.5431 19.0159
335.279 50.7873 15.0737
367.21 41.1642 15.1363
437.924 65.9914 16.9696
301.387 24.3645 8.12442
440.855 45.9467 14.3456
195.965 22.9511 7.17257
240.272 19.2561 6.41878
275.589 26.5161 8.29395
251.653 20.965 6.69353
337.105 25.5207 9.1043
128.686 22.153 9.17918
127.366 23.7157 7.59276
304.636 41.4284 12.917
173.707 15.0129 5.18904
262.433 42.4534 14.9173
419.304 52.5362 17.8273
308.199 35.7673 10.8319
304.753 49.4418 16.5467
144.47 14.6625 4.71251
174.968 45.1194 16.7802
287.065 20.8415 7.74199
300.222 45.3553 13.2794
178.377 22.5258 8.43077
253.392 27.2092 8.1964
398.74 60.7834 23.744
222.994 23.5253 11.8608
111.483 13.2157 4.88647
185.662 45.0906 15.0929
275.834 20.6658 8.5814
208.283 27.6357 9.70466
124.478 34.5293 14.0176
184.892 29.9714 8.08755
190.598 20.9358 8.02958
275.158 38.3992 14.5902
253.581 47.7503 22.2788
263.529 41.8719 14.8387
180.173 27.4958 10.3356
275.632 24.9827 10.8051
226.892 41.1973 18.2401
280.195 40.7398 15.9177
140.733 13.8662 7.04284
242.251 32.3281 13.01
330.218 84.68 35.1665
156.865 40.6595 14.7927
103.609 23.924 9.41561
136.59 28.9721 12.0678
128.279 18.3276 10.9651
198.058 44.0559 16.6713
226.917 39.7278 21.0682
129.883 24.6298 7.30319
220.419 72.8678 30.7965
143.019 34.0864 16.642
195.933 45.2526 18.0031
53.3626 15.1971 8.86225
222.566 48.529 15.5714
114.495 38.1966 18.3475
109.618 37.9758 17.6007
176.351 40.4307 19.3044
225.33 21.1867 7.26587
221.446 39.8931 19.3764
101.22 22.2961 12.7301
170.232 26.7829 9.67681
220.738 36.705 16.8607
261.381 47.0035 22.052
157.368 17.9941 8.27148
109.375 22.8033 9.41006
168.596 46.6541 21.3042
118.639 34.651 18.3635
82.5485 39.4007 15.9956
75.6776 27.915 14.8241
154.172 20.9097 12.7297
249.286 43.7288 20.3488
191.982 24.1377 11.0963
101.837 24.7651 13.5931
69.989 18.3726 9.61349
148.664 44.9602 21.1026
113.28 33.6733 18.6765
193.589 32.2091 16.8778
173.325 44.6741 22.4364
97.9442 38.1091 15.8788
38.3547 37.8679 22.0848
167.329 26.0044 13.5496
179.957 25.5237 13.9175
121.887 23.0052 11.5272
215.746 24.7282 13.2854
171.709 28.8869 16.115
127.927 26.1995 12.918
127.057 35.6258 20.4084
285.042 42.0998 20.4553
121.067 19.0857 9.83014
190.937 23.4819 15.3432
139.407 26.223 15.5669
83.7441 30.9948 17.8229
93.3224 61.0675 34.0611
88.4706 46.2789 21.4549
89.7962 21.584 11.194
92.188 24.9292 13.4613
124.446 22.0897 12.7401
138.121 14.8846 8.89371
179.107 33.5862 23.4455
104.189 56.9851 29.4191
136.736 22.7767 14.7634
128.8 53.589 32.7406
139.609 27.1518 13.9677
99.764 7.85645 3.43638
182.636 18.5241 11.1781
71.793 22.8418 15.4248
67.8032 12.3939 5.80489
172.798 71.3772 41.0811
106.413 15.4499 14.1926
70.809 16.1314 12.9922
186.892 56.5759 25.6237
142.63 20.1933 13.7272
136.126 20.2905 13.0509
123.306 36.9126 20.2436
81.4538 18.2934 9.12201
108.384 37.1851 22.621
100.07 14.1293 6.26232
73.5434 36.6704 25.8859
145.246 27.2705 12.7174
46.1011 21.6652 14.7971
116.451 27.2927 16.6782
113.296 17.1597 11.5715
66.6795 18.507 9.96927
109.54 11.9227 9.14387
72.0146 12.2351 6.73226
84.8369 25.4627 17.4733
114.249 31.549 27.504
77.7748 24.764 12.4766
115.268 23.9025 12.8966
72.6389 19.2026 14.9313
48.1744 12.9002 8.15787
108.962 14.9729 10.142
87.0145 25.3924 19.2355
116.758 25.9249 17.5737
104.499 23.1249 16.7844
131.666 16.2625 15.2568
121.664 24.7459 15.5788
82.7407 26.0913 17.3875
69.0152 8.02987 5.73013
52.5197 27.8926 22.1708
81.6402 25.4059 16.0742
77.6085 28.5296 15.4038
71.1287 29.9486 21.2496
121.998 41.6186 29.4324
53.0207 5.79268 8.3394
81.9999 21.8278 16.1655
109.631 35.3364 31.7852
133.935 41.9471 24.7827
142.626 30.9576 18.8792
88.904 41.5189 29.2676
82.2461 23.9592 23.6211
105.974 13.0415 7.69102
57.8295 20.9852 15.2506
45.9827 10.8954 9.25663
100.297 24.622 18.1115
143.888 25.0645 23.4845
47.8739 23.542 17.827
159.543 27.1327 17.7236
97.2247 20.1432 15.376
100.002 19.8998 15.5475
61.9182 13.9335 11.9384
63.7833 8.36611 5.94388
78.7076 15.8147 14.6296
76.9727 18.3518 12.2044
77.9358 13.1642 13.0414
74.4864 25.2811 16.896
75.6739 51.4868 40.5174
92.4974 14.5958 12.913
47.4963 5.14642 6.46353
79.883 15.5079 13.2567
70.7516 19.1664 12.8129
61.4736 27.5847 24.6581
87.9191 10.7322 6.54318
61.2297 29.8598 26.6208
89.4626 8.66828 6.63262
108.169 25.8418 20.0266
95.8658 20.6714 19.8863
89.8812 10.9009 6.62548
105.465 19.1653 15.7617
81.0782 10.9854 8.59144
67.3 4.47395 6.92708
63.0533 13.1802 9.31132
54.7964 34.411 24.234
58.2867 8.53632 9.76515
71.3088 15.0174 21.5988
37.1435 22.205 14.6016
84.3127 26.101 19.5442
57.9575 8.91235 14.3696
102.531 26.1068 18.3365
80.9116 12.902 9.74585
94.8321 25.3499 26.5963
42.5312 28.1479 24.8413
124.874 31.7202 19.7489
38.17 21.5379 18.5193
77.6908 23.9258 25.5664
82.0667 18.1751 15.9896
74.6414 25.58 21.3721
86.1023 30.507 28.6659
79.5933 22.2366 21.1157
80.1689 10.6345 8.82986
84.3615 17.483 16.9627
56.3004 21.7983 19.7075
70.4841 21.6214 18.4166
37.0247 37.807 34.8069
95.9709 32.0485 27.8577
53.9983 13.5718 12.9847
43.8809 13.4101 16.9568
90.6043 5.31264 4.49587
71.8223 11.1753 8.26462
76.7801 20.9668 20.2189
64.2052 22.4303 21.6925
57.3629 22.948 19.7789
106.639 30.5814 31.6741
44.9241 11.0794 12.2879
68.6289 13.7291 11.9417
23.3154 31.1811 30.7069
71.5946 25.646 22.7428
52.5107 12.4954 14.8052
66.7226 14.9213 17.0819
48.7058 4.77906 5.14268
54.0681 13.6331 13.2196
72.6578 15.0409 17.0889
53.4695 16.5636 22.7856
98.3617 18.8643 12.6386
83.1528 10.5443 8.9068
50.4559 10.4127 11.9401
45.9404 15.3078 16.5927
93.1812 22.3345 19.0562
85.1781 19.8378 15.528
73.8176 12.1349 13.7315
78.489 12.2378 10.9998
56.2972 13.7516 16.4506
74.9461 13.2751 13.0657
53.8844 14.9869 21.5296
39.9126 15.3263 26.0891
117.275 35.7825 25.1615
69.574 11.579 14.6847
36.5292 11.5895 14.2458
84.6603 26.0355 24.6609
80.654 14.884 12.9466
79.6723 17.5412 17.1952
63.6771 14.4757 17.8043
31.4316 8.12781 6.00369
31.7063 22.7366 27.0104
54.7704 15.8807 15.142
32.3065 11.1185 14.6389
73.2837 7.85948 11.6299
68.4043 13.8568 6.81539
64.0394 22.5677 22.9315
30.7613 17.1527 22.495
54.4469 17.664 19.1094
68.2456 15.34 19.9373
60.3873 11.1751 8.00347
64.8249 7.4809 7.76279
46.8288 16.6248 22.3282
83.2927 16.9349 18.0135
60.5038 8.44934 8.31639
33.4572 9.85668 11.647
51.6911 13.2428 21.9276
75.6612 21.7172 15.2471
57.4453 20.9478 20.4524
47.7106 17.1103 22.5675
61.7009 14.7161 17.6467
72.4755 30.2971 34.788
64.6407 20.7669 22.5531
46.8925 15.0147 18.2367
73.683 15.2735 19.5216
50.1686 20.1929 24.4886
55.5733 13.8938 14.5125
39.3396 15.1353 18.2427
46.0859 12.884 11.7307
36.1333 19.7478 20.4913
57.0801 24.729 39.4008
49.7492 13.1282 13.0255
61.7575 15.6802 24.8688
79.0269 32.1131 26.7963
44.9847 7.71125 10.3575
73.1212 22.2067 29.0085
31.6935 18.4492 24.3686
37.741 7.74492 12.1904
71.5305 24.4367 25.7631
37.3454 10.0662 9.03132
44.1284 9.14153 15.3471
67.2075 50.5865 59.8872
27.9078 13.7932 17.898
34.1894 9.71913 11.2876
46.8751 7.95743 7.13954
31.4593 22.9923 29.6287
51.9338 12.4818 17.2322
57.7034 11.1647 18.6943
24.9043 13.3939 14.9763
37.9676 16.4136 24.7689
65.0546 14.3952 19.7339
53.358 5.69543 4.52651
42.8632 5.76407 12.7321
50.26 25.9024 24.9467
38.4957 19.6187 27.9772
57.8103 8.28903 5.55456
48.8637 13.7689 20.0741
48.5757 10.8565 24.2245
55.4538 19.9189 18.4921
62.4751 15.3876 18.779
44.9651 7.24019 13.0053
35.149 11.4247 17.897
47.7513 20.1424 18.7479
55.3906 21.9767 32.8418
28.3887 6.15089 5.00782
30.8556 6.0203 11.5958
41.9038 9.93366 10.9368
27.913 7.69483 7.88655
38.469 2.21036 4.11357
55.043 14.3441 20.3135
53.6643 18.8016 30.8557
30.2736 21.3263 23.5914
62.1752 17.6883 22.3388
43.0106 10.3927 12.0241
45.7832 16.1364 25.054
29.8262 6.62362 6.92236
50.3583 16.028 17.3306
45.4321 9.73307 17.1388
39.1143 8.48015 14.0069
48.1411 7.82641 9.37385
59.7692 15.4584 22.2516
46.2835 7.577 13.9969
55.9468 10.5682 11.241
33.8258 12.09 16.1898
27.4532 8.06752 17.3233
34.0483 12.3354 15.9377
45.6797 2.9727 5.81455
38.3532 3.76838 5.55089
36.0723 9.37839 10.1879
32.4135 4.08072 9.6374
35.657 11.9612 14.7325
28.774 4.69768 4.59843
52.1444 17.0692 27.559
22.5511 14.2318 15.8021
32.8035 16.9943 31.0001
42.2936 14.8364 19.8925
45.3001 5.75786 7.80448
38.8292 9.54753 16.8224
55.2883 14.6741 16.9332
51.8272 12.1932 23.0008
26.4559 3.54987 1.88787
26.178 9.03516 12.7044
73.835 29.5346 42.8679
42.1298 14.7901 27.4671
30.243 14.1881 16.2428
45.2417 12.4598 21.1665
51.1442 16.2196 22.1752
43.8126 11.3013 15.8521
32.3222 10.2182 13.6058
19.0439 13.1857 16.9885
30.7823 14.3032 20.762
21.8421 10.5016 14.5614
41.6889 21.1502 35.4988
37.4028 10.1786 26.9348
45.6686 15.688 26.0125
49.6226 21.9122 29.5726
27.5441 13.8102 28.9292
20.6969 20.9595 29.2245
32.1734 4.31329 4.69252
37.5599 9.26784 12.9253
29.6379 5.64552 10.0786
34.6529 14.3257 21.4411
36.5953 12.8532 16.7115
35.6203 5.253 8.38045
42.6082 6.31174 10.6415
47.8859 17.0908 19.956
28.1821 10.5334 15.8087
27.815 15.5956 37.7113
41.8389 9.63892 11.4659
26.7443 11.5723 17.833
53.6911 16.831 24.8007
46.3111 8.90989 9.96202
36.6916 8.60861 15.8617
26.3319 12.9477 18.0658
43.1785 9.70452 17.2299
49.8228 14.6556 20.3657
25.0413 7.91331 13.1125
35.7072 11.3919 18.6624
32.2957 9.69172 20.0693
32.4995 7.76363 8.97725
36.8608 11.8182 18.4967
31.8358 11.0581 27.305
32.9036 18.5673 19.7646
31.6749 11.1666 27.322
48.5695 14.9789 20.9573
19.4295 7.88247 18.1101
32.6826 18.0244 34.3947
44.2595 12.5079 26.2153
36.6209 16.1935 24.6627
30.6651 6.01078 10.5454
24.7255 3.25908 4.01449
21.3783 16.846 26.5238
37.2344 5.99922 7.70424
20.2699 18.1738 37.0783
45.7961 11.9283 17.4961
31.3036 16.0467 32.1149
35.5378 11.2052 26.031
57.6851 21.7387 34.1871
28.8917 8.66845 18.1098
35.8827 6.31541 7.45989
37.914 10.7211 22.8363
32.915 7.51185 5.82859
33.8802 9.2164 15.6752
43.3332 16.802 43.7018
27.1304 21.2752 23.9107
27.88 8.29731 13.9168
23.6236 10.3041 25.4994
48.7015 16.0856 18.5962
26.8038 15.2656 36.8361
36.5025 12.106 16.8962
49.7172 26.2316 30.0742
29.6263 10.4262 27.3059
23.1864 8.17508 13.6315
25.7552 3.70991 6.03473
21.5662 4.02344 9.71481
22.581 3.62123 8.75648
31.8052 16.6549 26.0396
25.0935 7.83523 20.272
41.2374 14.0381 17.3056
27.1982 8.49707 19.9515
32.782 11.2809 16.4626
29.83 5.417 19.3796
37.7675 16.5706 20.5384
27.6601 7.16456 12.482
24.1771 14.1182 25.6234
25.4577 3.70029 11.5855
32.4006 13.3923 15.5128
27.9793 4.20528 10.1221
30.1296 11.3765 23.631
24.2208 5.55483 13.1302
28.8594 13.4917 25.4089
30.925 8.87847 17.7036
45.3908 13.6567 30.8063
25.7647 5.80742 12.3948
16.4359 9.55684 16.6073
18.7244 11.4485 25.7486
48.6471 15.2244 11.1875
34.139 22.3484 43.3235
42.686 11.5602 19.8294
51.8365 20.8202 44.4987
19.4515 3.94987 10.4688
26.3572 8.46059 12.0211
18.1743 12.2645 23.826
31.2031 9.35246 13.3037
20.0834 14.1856 30.0568
24.0212 8.03973 14.9642
25.5977 3.11974 10.213
22.4366 13.5076 27.7062
24.8188 4.80431 9.77054
31.815 10.8836 25.6946
16.4114 12.158 18.5795
16.1669 8.19282 13.9181
19.4949 5.90014 12.0836
36.1814 8.4191 22.1637
29.1812 12.5363 28.0328
24.966 18.0172 26.9399
30.9749 4.8822 11.0713
18.2012 9.35925 19.2851
35.1715 5.00328 8.91198
36.6097 11.0896 18.1863
28.3575 11.6152 33.9532
32.2715 12.0825 20.9002
21.9535 16.6286 31.5557
17.1798 8.40792 21.5331
29.9548 4.72179 18.1889
23.3552 20.0289 32.9762
23.4753 6.74772 17.847
28.8454 9.20125 10.2007
20.8439 11.4058 25.4711
25.4805 15.8376 31.0395
18.3702 10.6789 17.8479
21.3025 6.99623 13.8859
33.7114 2.74979 5.96881
23.55 8.30861 15.8293
21.2788 1.86644 3.80208
20.3549 8.50181 28.3603
19.6875 5.85584 8.74083
30.1836 7.94434 9.41175
18.5326 8.68726 27.9162
20.4942 6.60299 4.2575
11.7513 19.3523 37.2439
31.2915 8.33985 14.0257
22.8698 7.56929 14.2171
20.1886 3.75299 13.3855
21.8075 13.2365 25.3468
25.4657 9.42642 22.0563
36.0115 8.16238 11.305
13.6045 9.31699 27.4506
29.2668 13.6563 28.4659
31.7366 8.92497 14.7257
23.5905 10.803 23.1395
29.2204 6.66243 16.5406
29.7997 11.8656 23.2372
23.642 5.18516 13.0697
23.8807 11.6384 19.5072
27.0344 9.43824 25.3564
27.442 7.92697 14.7147
26.7627 4.35129 7.00272
23.4893 3.85374 10.94
13.9976 5.25826 12.7303
19.7507 8.01357 31.6927
27.9621 10.7111 32.0048
37.9565 10.342 13.8891
22.5871 11.878 21.5085
25.4295 12.7938 23.7504
24.228 7.0255 12.532
16.31 8.81222 17.2548
31.8731 10.066 34.6167
15.8061 20.8579 38.2182
28.6855 11.3117 30.5901
40.7186 13.4754 20.5048
19.7532 7.62395 28.0663
33.9693 11.7718 15.0564
23.0887 4.8385 9.84656
25.2289 11.4817 26.2037
28.5382 8.39082 25.5164
33.3552 8.22278 14.6582
20.7932 8.67551 28.8245
19.616 9.90915 13.6905
25.5315 7.24024 14.2731
26.7584 10.4473 25.533
8.12893 13.6547 22.9479
26.0185 9.06099 19.3399
28.6698 8.7608 12.9452
22.1888 11.7809 36.0962
22.049 9.85272 25.7431
31.249 13.3589 19.2149
24.2096 9.64293 17.7819
20.9447 6.1094 22.7233
25.0853 7.47227 18.9149
24.3083 6.75765 13.2208
30.1116 12.1034 37.9329
21.0218 12.7335 26.2637
34.6967 6.70541 9.89471
26.2899 5.82487 17.286
23.7606 10.6242 27.2562
21.6237 10.1032 23.6626
18.2198 4.89931 5.39005
14.0202 12.8764 31.9618
21.2982 5.79299 17.7087
32.1704 11.1824 22.9796
23.4135 7.27369 16.192
16.2222 6.0765 13.6626
24.7093 11.6516 25.4982
18.5127 4.19051 20.3409
23.888 10.0461 17.0879
20.1323 7.26574 26.0826
27.6027 19.9979 33.9999
20.8087 5.16646 12.1551
25.2701 7.84727 24.2879
14.5996 13.2922 23.9939
27.093 6.15976 14.9314
27.8392 3.85985 8.88838
19.0051 3.54794 16.5983
28.8781 5.58746 12.3088
30.3144 10.6122 21.4585
19.6211 3.54777 11.9251
18.321 11.1584 25.3655
22.2031 12.4447 22.1891
21.0763 5.83461 19.3261
24.5488 7.74831 22.5278
18.7846 5.5561 11.2508
11.1806 7.26825 9.21289
22.0474 1.5931 4.97766
14.1405 5.7396 19.4665
23.769 14.8604 39.3775
24.7118 13.508 29.4199
13.496 5.77406 10.0109
19.3417 8.27695 26.1345
18.5965 5.79634 18.5427
27.7485 3.71378 13.943
22.0736 6.06786 14.2458
26.7782 5.75866 9.87961
26.1585 6.35031 26.2157
26.3991 15.2283 20.6305
18.5391 2.95875 7.69375
17.7522 2.07507 7.44454
18.7464 4.82922 14.9807
22.6875 5.7202 11.2156
22.0329 7.18678 24.578
8.21145 7.68292 15.3272
14.1643 4.58941 5.54633
12.2996 11.0946 32.2549
21.1212 7.62264 13.8927
16.2691 5.37989 15.8085
20.2073 10.2797 35.9822
25.1571 7.49588 13.1368
18.095 9.43057 26.9889
26.6139 7.96462 14.3818
18.5826 3.08223 11.8585
22.1552 4.74401 4.27502
15.3303 4.31344 13.7417
24.6347 4.28277 15.5636
25.5083 7.74847 18.6569
20.9706 6.93801 22.7143
22.5321 5.42352 11.5904
21.414 4.37907 14.6389
20.0113 9.81641 28.4306
23.3177 8.40749 24.6978
29.4065 8.50462 13.4292
22.4563 5.92997 16.6918
10.676 7.76826 16.3885
25.5359 3.68743 12.476
24.6744 9.11003 27.2165
20.0451 10.2794 26.8354
19.5399 16.3281 28.8659
28.5844 6.90956 16.8437
21.3382 10.8586 47.7636
21.0229 8.51861 16.6249
21.8499 4.6254 12.0941
21.2079 12.7633 35.9825
23.932 8.23449 12.9842
22.8421 3.53757 15.3061
17.1243 4.93532 12.5523
17.4525 7.70202 25.1817
29.4218 10.5938 29.9535
23.2266 14.4125 35.1547
21.7944 7.03537 19.0624
21.4714 5.59868 17.1164
25.725 11.1403 16.1933
23.7301 6.09289 21.6144
20.1218 9.56747 22.6062
13.2839 4.58415 15.9921
18.6544 3.87875 10.3515
18.6963 6.90397 20.9155
24.6503 6.98694 14.5879
17.5991 18.4249 39.964
15.5064 3.41177 10.5917
20.8394 2.88526 9.60831
20.0618 11.8648 25.5172
15.9624 8.91288 42.2191
22.852 11.3542 30.856
21.3853 12.1278 18.6059
10.7018 4.65549 20.9144
20.1838 7.70715 13.8299
17.8705 2.08927 10.529
19.378 3.69171 10.0297
22.7288 9.30094 30.2185
20.6964 7.60261 14.0289
19.4528 8.06345 28.9342
10.7567 3.59863 3.70686
14.7415 6.65649 25.3755
19.3895 5.98978 5.09948
19.3908 10.1237 33.9424
11.507 5.99123 21.299
20.5916 4.30527 17.9468
12.2465 3.58161 8.3526
15.3497 5.1736 12.6484
20.0747 8.16284 22.206
24.4235 6.65905 16.7076
15.1345 5.39104 22.177
22.8975 6.69591 18.7425
24.1689 2.2394 18.2524
26.7678 9.49004 12.0735
21.5366 7.71439 16.057
16.7217 8.76162 33.6411
12.8937 2.032 6.08354
17.8812 5.52738 11.8822
16.0803 3.61801 24.1898
12.5426 8.24147 16.863
13.5055 3.07747 8.46662
13.5582 7.12199 18.2644
19.3407 5.74123 16.1611
16.139 6.09602 15.9935
13.9247 4.41546 12.5956
20.3072 5.87426 14.4349
19.4095 8.48962 30.7141
13.5417 3.77039 11.0756
15.9421 2.48996 9.32412
15.0753 4.49758 20.0128
20.2876 10.0587 22.037
21.1706 7.2737 21.6373
15.0913 9.57245 25.6086
14.9706 6.26721 18.9597
17.7091 4.59575 11.9453
15.3206 3.90106 16.6644
21.5193 11.4922 31.1118
14.3721 4.74385 17.2958
18.8795 9.43931 26.5148
17.9905 4.35004 10.7172
18.9305 8.51104 25.4531
21.4966 7.03378 15.4432
13.6632 6.49318 14.0714
18.03 3.04784 9.40977
16.3127 2.36455 14.9711
15.1759 3.3698 7.04072
13.7909 6.19443 18.9684
16.261 7.89174 22.7287
19.7765 5.04476 14.164
16.8857 9.85099 19.8966
18.9862 5.57569 24.9773
18.5458 4.65528 11.8265
18.9402 2.49142 6.36504
16.7874 3.76255 16.4393
21.6938 8.75483 29.2832
23.2466 7.49526 19.4259
17.6043 5.0179 16.9641
19.8614 5.16685 21.8867
24.3623 7.35771 10.9092
17.7273 7.0199 11.0258
15.1955 4.95772 19.4896
25.4584 7.98869 20.9383
14.9997 4.2967 16.9257
14.2263 5.46768 14.6869
16.631 1.51604 11.1701
20.658 5.72392 11.8478
12.5592 6.65007 15.5785
16.8855 5.35998 15.6586
15.4541 5.50898 18.5519
16.0241 4.56 24.0812
12.2359 7.69415 19.5054
10.9794 3.36352 8.84468
16.5053 2.58268 9.84709
11.3098 3.00752 9.12239
15.489 4.88025 14.8602
11.2972 8.18974 33.2633
13.8146 8.49324 14.7746
15.462 4.69693 17.0139
16.3881 8.21702 32.8879
18.4551 6.76588 13.5477
9.64531 5.00118 14.827
11.9741 7.49651 17.3033
14.4555 4.23884 18.4561
15.9856 2.61497 6.74177
13.4415 7.09402 17.4789
18.9881 5.19647 13.2921
17.9966 4.98361 17.2403
11.4958 1.00772 1.09426
12.9902 1.62409 6.56836
17.1458 4.81585 27.1288
15.3899 5.86722 9.4671
16.4137 5.95247 22.3165
13.7953 6.04931 20.8588
20.0698 6.11755 17.8258
20.001 5.18576 10.1663
11.1463 4.46534 12.4869
12.6316 6.60501 17.4463
13.1118 5.07682 16.0042
13.8111 3.75209 18.0909
18.2912 7.06265 30.3454
16.4911 5.73734 16.2126
13.6068 4.99562 13.715
15.0929 4.8617 12.9432
14.4899 7.91912 19.1355
20.0949 2.59699 12.0363
19.8076 5.55329 18.2145
13.9314 8.73445 22.7371
11.5012 6.25495 23.1339
14.0183 3.40284 4.29372
13.8736 7.20073 24.1522
15.4442 9.0906 41.2326
12.8109 12.5809 25.4517
15.8678 3.85252 20.7022
16.5228 2.15482 16.8993
17.6173 7.68703 12.002
19.9234 6.0751 16.3427
17.4469 5.72124 23.9015
16.1819 4.59571 21.3056
10.5422 13.1452 43.1048
25.3374 6.50235 12.9944
15.0845 3.62418 11.8331
14.4008 2.79163 16.5663
23.6675 10.1836 23.8659
16.6287 7.12811 25.9166
11.8053 5.08172 20.0152
18.2693 3.18726 8.34418
21.0505 5.05311 19.8439
16.6221 6.76882 12.7749
14.412 3.63076 10.4758
13.1975 1.47926 4.63361
13.4301 1.92297 16.8085
11.0152 5.40448 10.6419
17.8175 5.22142 14.0827
14.6492 5.55139 22.9974
11.4595 8.64406 24.8796
11.0675 4.72744 10.2762
15.4822 1.32133 12.1719
19.1672 4.74754 14.9207
19.004 6.86446 23.7043
16.2803 5.98818 19.7504
11.2072 5.58994 14.6893
18.2699 2.26037 14.3378
15.1138 3.40223 20.0431
15.8484 6.62151 14.226
11.3612 6.48528 18.7942
15.0598 9.19264 20.6776
15.9703 4.04182 12.999
14.8287 6.60336 20.6211
14.2126 3.3057 10.2402
16.4615 3.75842 17.174
16.12 3.91567 9.57223
16.5089 5.85394 18.5242
16.6566 3.52564 15.1857
13.5005 2.21204 4.1772
11.9948 3.30517 21.6715
13.7542 7.32523 20.7999
21.2558 5.28438 25.681
19.6988 5.28269 8.54164
14.515 5.23716 9.53721
15.6803 3.88842 17.0537
11.7254 1.61959 6.18898
14.104 4.90663 19.716
18.0529 4.34264 24.5248
14.8973 9.44571 25.7876
9.85734 4.5854 11.8225
14.3594 2.96163 9.65962
9.86347 3.20042 14.669
16.4569 5.34709 10.0928
13.4728 2.40768 6.29129
12.457 4.49655 17.4803
15.6331 4.93721 16.4677
11.2989 4.58752 15.522
20.2703 4.94425 15.2347
14.515 2.7533 10.5104
16.441 0.908524 9.38047
18.2305 8.44763 28.4146
16.3645 3.02635 8.82592
16.6962 4.36349 17.8001
14.7216 7.707 17.2065
13.4435 3.60635 24.0414
14.3088 5.13259 18.2049
14.0256 3.13548 7.85016
11.2894 4.04068 17.429
15.0814 5.9316 18.4959
16.1737 7.73074 23.0453
16.2203 6.06051 18.6347
13.5267 9.09813 27.1588
19.9845 2.84263 15.4655
18.0813 2.70896 20.0123
16.6725 9.6854 14.1707
14.8265 5.89253 26.78
14.3744 4.11169 9.40984
9.46829 4.09182 18.0908
10.5524 5.75654 27.568
19.1265 5.88386 22.4629
16.5374 2.32992 4.667
16.394 4.82273 14.4285
13.9685 4.06572 14.6589
15.2271 5.14438 17.4035
15.7815 2.89323 2.90966
15.6732 3.91232 14.7984
12.8282 1.66594 7.29806
17.0949 1.74238 6.61773
15.8624 4.50167 18.5726
11.3491 2.34088 13.3775
13.2707 8.9613 22.8029
18.8298 3.68743 10.3239
15.1372 2.20544 10.2674
13.7996 3.26332 9.83441
15.6848 2.55287 9.31798
14.5259 1.78688 10.7614
16.2006 5.20158 11.8983
12.9547 4.00849 15.4
15.006 4.71801 18.9395
14.9322 4.02309 8.97538
11.559 3.73446 12.9135
14.9029 2.81165 8.40659
13.3326 6.23804 26.499
9.60264 2.9439 10.2985
9.46354 5.86656 28.3959
18.4943 3.737 6.44962
11.215 2.69763 13.4733
9.66614 3.85067 11.3834
14.8781 2.25706 8.93496
10.5668 4.31458 15.9039
11.5466 6.23803 17.5207
13.7227 4.01754 15.1906
13.794 5.74707 17.7173
16.7259 3.12648 9.41168
11.7409 3.10918 12.873
17.5804 2.63919 7.51128
14.6932 2.64159 7.48674
13.9447 2.4404 16.007
10.6594 3.59483 3.70984
13.2177 0.810123 13.0064
18.4238 8.57118 22.9949
16.8415 4.67507 8.60183
10.4868 1.80673 9.98935
13.3214 2.64335 9.93701
11.8149 2.52686 11.5451
10.9539 5.08866 15.7681
16.7716 2.13901 10.056
17.1421 6.2692 14.3275
12.297 5.34506 26.2352
16.5042 5.50531 12.6686
15.6025 5.09097 25.1254
11.7196 4.00189 28.8993
13.6935 7.33719 19.2522
16.3165 4.53354 33.52
13.4898 3.70042 16.063
18.4246 3.62165 6.84001
14.8463 6.02958 22.068
12.7494 5.69784 15.8729
15.2778 5.88394 24.2258
18.6543 5.70739 12.7781
17.5678 8.64078 16.585
10.6237 4.97519 23.4454
10.8134 6.41976 22.3876
16.0271 2.80655 5.75573
13.1184 3.18645 13.6226
11.4107 1.19215 8.70039
10.7556 4.6619 15.5856
13.829 2.85222 8.9258
14.11 5.33501 18.526
13.9864 4.75977 21.9346
16.5048 2.25731 7.83984
11.363 2.45133 19.4199
11.8695 8.00259 21.1325
11.1752 4.81503 14.513
14.6908 2.59613 6.17481
11.1025 1.74361 9.4192
13.0531 3.88282 8.06351
11.7779 1.62657 4.87971
12.6779 3.99412 21.1982
15.8689 2.91051 22.8506
20.7751 4.6034 3.38089
13.9553 2.9682 18.0795
14.9316 5.85407 21.4135
7.80651 5.00444 16.0614
13.0259 7.1382 17.6066
12.7319 4.07915 17.7468
12.6145 4.11575 30.0699
9.98136 4.02664 9.16901
13.5291 5.37175 14.2982
13.6439 3.36828 8.03604
12.1358 3.28231 17.6838
11.7049 3.11606 22.129
13.8095 8.12028 23.223
8.35585 5.02898 11.0072
10.7851 2.15616 8.68984
13.9622 4.67438 18.1043
13.0754 2.7979 11.3687
13.0555 3.15984 7.4744
14.1724 8.20729 27.3939
12.5687 5.12912 16.4515
8.80916 4.31792 24.4012
14.7327 3.40116 10.2291
15.2686 1.44491 6.61548
15.3147 4.31251 17.7276
14.0823 4.56979 20.9421
14.7817 5.80861 13.2541
12.1673 3.60365 21.0756
13.0397 6.19996 26.7909
14.5231 4.57866 10.5576
14.8683 1.84668 33.0392
18.3335 11.148 21.4696
15.5417 4.5309 9.16541
11.1685 1.75258 6.20005
14.6816 1.90448 9.68828
18.1107 6.96003 25.2237
10.3835 1.4825 12.9082
11.6381 0.995437 7.47533
10.0091 4.70577 19.1784
15.6523 3.64673 14.6023
15.8611 7.44732 31.9993
18.3556 6.74988 21.5678
13.9336 2.97132 10.9554
12.5045 4.90645 16.5843
12.5066 6.26051 23.4765
11.8949 1.63054 7.53513
10.5408 3.95139 11.3573
11.5767 2.76325 8.0851
15.388 1.96703 7.52113
12.4745 2.25439 17.289
10.7674 4.78021 14.7271
13.1041 1.38546 14.0095
9.85358 6.61458 9.37352
13.9536 3.55197 16.0635
11.3632 5.86781 32.3249
17.632 4.30242 12.969
13.5773 3.78476 6.69524
11.0164 2.75393 15.2632
13.43 2.46171 9.19159
9.57701 3.92143 16.7581
11.9827 4.04917 16.9446
11.2009 5.24739 12.5153
16.8747 2.57204 9.3464
12.4074 4.55093 12.9962
14.5024 3.79196 18.9683
12.3713 2.53559 13.6064
10.8766 2.68392 9.73151
8.0429 6.05932 24.2121
18.1795 5.01098 14.5835
13.8492 2.91181 15.3119
13.1563 5.42932 17.3747
12.2521 4.82412 16.7443
10.794 2.72788 9.59444
9.97324 2.55813 10.7168
13.7265 2.50263 11.0833
10.1242 3.4578 8.18714
14.1243 1.16461 9.74878
10.9516 2.33832 11.5132
12.5113 3.94929 7.16374
11.7428 1.66606 5.84134
9.10287 5.44562 23.5335
12.1255 2.30207 29.8779
15.9897 5.92987 20.5946
15.2826 6.00724 13.6979
11.3812 4.65147 22.6417
9.67425 2.67558 4.99532
11.8339 3.3453 7.88394
11.8779 1.60824 9.84853
12.9093 3.56345 17.1587
11.4395 2.83964 8.29244
9.18509 5.89436 24.2788
12.2554 5.59973 8.51632
9.99252 3.70476 20.4289
14.1231 3.30086 7.92291
11.287 5.16074 16.7976
12.5064 3.32849 9.49251
12.5938 1.47601 5.181
11.9238 3.04326 22.3393
17.6006 4.50048 2.03774
11.4024 2.17609 6.12731
12.7729 2.51748 15.0333
16.672 3.11983 12.0172
12.7738 4.88711 17.5258
15.9402 6.57053 25.6083
14.1846 2.50274 7.37942
15.4399 5.90152 12.2555
9.80162 4.50907 28.2851
12.2483 4.35741 18.0051
9.60565 5.763 23.6851
9.30418 5.5063 26.9839
12.1795 4.62102 28.2465
13.2641 4.07235 15.1047
13.1569 5.08443 15.5714
12.9123 4.36588 13.6992
12.8782 2.34538 6.4866
11.4597 4.68707 15.4847
15.9471 2.92275 26.6232
19.1453 2.45439 12.415
15.8694 4.95914 8.85295
11.6491 2.63362 13.7768
16.6576 3.38105 9.09567
9.62155 5.83029 25.5659
12.754 4.8092 17.7305
10.0168 4.14179 28.6794
16.5108 5.56015 13.8116
13.9852 4.41785 12.3669
12.7286 3.3963 11.0336
10.7967 6.37085 17.0317
13.0526 3.01989 15.7507
12.5533 4.32871 21.6495
12.541 3.27232 14.4895
9.29883 7.23504 16.6459
11.2737 1.24968 5.37091
11.0861 4.61718 21.051
11.6236 4.80892 31.4329
14.8196 8.64288 20.9481
13.2784 4.6234 19.5187
12.4725 3.01517 16.8092
13.4101 3.95898 14.347
14.4114 2.33197 10.3188
13.3312 2.99254 18.5425
12.8029 4.50192 7.73087
16.0639 5.66003 22.0351
10.3777 2.18633 8.29892
11.6596 1.64701 14.3253
13.5146 3.98708 18.0208
10.2133 8.73251 24.1295
14.2963 3.52433 21.1733
12.9848 3.848 8.70183
15.7122 4.07967 15.4456
9.50745 3.16608 21.2892
10.2539 4.04533 16.5539
9.92309 4.8346 14.4498
14.0638 2.05148 12.7444
11.9656 4.00502 14.2096
11.6758 2.51024 22.6583
12.5053 4.9744 10.832
13.0129 1.45895 2.48226
11.2526 2.54913 11.5678
10.2615 2.42943 4.59375
10.669 5.00765 26.2764
14.9623 5.48067 8.57095
9.31636 2.85863 8.24569
12.3228 2.08775 6.61937
11.5122 6.63158 23.1397
12.5263 2.82663 20.0263
10.664 3.27818 11.8699
16.0373 2.16497 7.1555
11.7659 5.00625 14.9659
12.8512 3.1121 15.4168
14.9673 2.12404 5.90147
12.8823 2.15219 16.0331
10.284 5.49325 25.3955
9.90775 4.58924 21.3925
10.146 7.77163 12.7583
15.0638 2.98624 18.0845
12.0697 3.37212 14.6745
14.0793 1.62417 8.75806
13.8326 1.95261 11.5965
12.283 3.11202 6.33214
10.5481 0.827804 7.58834
12.7025 1.86993 19.4467
13.2392 4.87228 17.998
10.7478 4.99635 10.477
10.4581 3.40081 10.4272
14.3242 1.74828 5.07258
11.9247 4.84699 24.3665
13.5481 3.97932 20.2607
14.0731 7.23008 14.0309
11.9314 2.99831 15.2146
14.4496 2.77315 8.61422
10.4728 3.46882 22.8959
11.6931 5.63073 14.6494
11.338 4.06954 18.1436
8.12811 6.42226 30.5706
14.1857 3.60084 12.4179
16.3335 2.95356 18.779
12.7007 2.89535 5.42023
13.361 4.95245 16.1798
9.55769 0.775572 12.0182
9.91951 1.5646 12.9912
10.8465 1.40262 16.6288
9.76269 5.25204 14.9785
12.7918 5.37064 18.5267
12.6607 3.96476 6.84781
11.0757 1.723 6.38523
11.8818 1.74869 5.97143
10.4551 4.11158 22.9693
11.5581 3.21244 8.43889
13.257 4.82219 18.6201
15.939 1.11097 16.8754
12.8164 4.44612 10.9429
12.9331 1.85207 9.2036
13.6684 4.61865 12.6879
9.50239 1.42903 5.65086
13.2075 4.59749 16.1347
11.154 1.45681 11.2967
7.86809 7.73968 23.4387
14.7893 2.95117 15.675
11.2395 5.8827 16.9961
13.5919 1.05974 5.92602
13.6617 2.69816 6.95883
11.4202 1.62448 10.0075
15.7099 1.78808 13.8565
12.8446 4.67581 14.5097
12.8451 5.17688 10.7854
11.5844 4.72181 32.1625
11.9808 5.29106 8.66941
11.6909 6.25609 31.2649
16.6633 4.21944 18.3185
10.1225 2.76425 7.33825
13.3911 1.73972 17.6562
12.867 5.5764 18.3893
13.775 3.73669 20.2713
16.1623 2.97213 27.3256
12.5378 9.57884 20.9978
9.92038 6.30876 16.1144
9.74591 4.16823 12.4563
10.7268 2.79924 20.6215
16.1729 3.90087 9.31343
11.085 1.37566 6.83231
11.8428 3.50909 16.7192
11.329 1.74779 10.8833
12.3359 1.81079 16.2718
13.68 4.65148 12.1042
10.6443 3.31498 22.678
15.7321 8.54381 14.7266
10.399 5.42413 27.8316
14.1059 2.28792 5.5602
10.1587 5.29866 25.4288
15.6889 3.19114 16.5988
12.8431 4.91297 21.4935
8.42493 5.21425 28.9633
8.68172 5.9928 9.59341
11.1201 6.35671 19.2523
9.98285 3.60498 13.3022
15.155 4.09934 13.4182
11.8747 1.77787 9.38383
12.0893 6.14938 18.6661
12.3018 3.14561 22.211
17.6714 8.16641 28.2741
14.9609 4.3913 12.6329
13.3331 1.51879 15.4051
13.3929 4.04943 15.2832
11.6932 4.33341 14.5189
8.78796 4.19743 22.6249
12.524 4.78148 13.1812
6.60329 0 0