# pn-170911/CsIIA-av-WTZR-1280-1959.psd
# Power spectrum* (dif=0,1,2) (really just |FT|^2)
# NOTE: only the first half! (symmetric)
# weeks: 1280-1959
# 20 clock-days, 17 excluded
# PSD: 1441
41373.3 1.97134 0.0278484
2.06164e+06 39.0931 0.0101577
1.19278e+07 298.622 0.01467
1.7815e+06 47.5096 0.0137257
1.2621e+06 96.1047 0.0174116
708821 55.6748 0.0144133
361960 35.9586 0.0197187
322688 59.0895 0.0158874
294679 56.0734 0.0345649
208499 48.0517 0.0289438
157061 51.9342 0.0423476
148687 57.9754 0.0388207
118317 43.6339 0.0498555
90218.7 48.4143 0.0454499
86833.1 55.055 0.055355
57929.4 48.5162 0.0521685
68335.9 65.5022 0.094945
56594.9 47.681 0.0838989
40625 41.4473 0.0801137
50346.7 62.6583 0.116535
32130.6 42.5836 0.0908117
39976.4 54.59 0.115883
44616.9 77.9096 0.183887
30645.6 68.4924 0.178722
30947.5 64.9995 0.180439
22078.6 66.3184 0.191332
28448.1 44.5424 0.159564
16574.7 39.4593 0.166392
12079.2 37.286 0.160341
23598.3 64.1441 0.238766
14488 47.1569 0.228832
19262.3 63.3012 0.339459
18479.2 62.1086 0.311154
16066.7 59.7807 0.339819
13522.2 63.4569 0.365254
14605.3 57.6741 0.358823
11542 67.855 0.437891
11822.7 58.3471 0.374314
15291.1 69.7218 0.481494
9970.54 58.1892 0.452778
13515 69.9373 0.58529
9184.68 51.6879 0.440208
8805.78 45.6493 0.38234
7984.42 48.806 0.431571
11233.2 72.6512 0.646096
10253.2 72.0665 0.67388
6678.07 51.1963 0.540857
7331.32 54.1935 0.587256
6414.47 50.5204 0.589733
7564.04 69.7691 0.832994
6839.37 56.9721 0.713033
5728.9 35.7487 0.47492
4628.23 41.939 0.546581
4164.86 32.1797 0.422152
4925.63 49.4438 0.676548
4157.64 43.4121 0.60786
6236.06 65.3569 1.01904
5546.47 69.8414 1.06573
4855.26 58.7515 0.96607
4873.78 55.5694 0.962076
3121.92 56.3194 0.973985
5370.02 75.7597 1.31817
4601.77 65.4221 1.18442
3699.81 43.6377 0.810112
2715.08 37.1073 0.768952
2792.49 30.0904 0.623563
3903.55 51.1587 1.10612
2437.91 36.1944 0.790345
3489.88 61.1581 1.38485
3206.13 48.2235 1.079
3106.99 51.1709 1.21346
3195.72 53.55 1.2998
2979.01 37.8433 1.06114
2648.57 60.0124 1.49811
3280.75 48.3974 1.2537
2827.52 46.8524 1.16357
2247.49 44.2478 1.20628
3316.71 61.0486 1.64599
4124.78 75.0171 2.12669
2946.74 71.5383 2.24736
2690.61 52.0754 1.50389
2246.55 50.8957 1.59221
2424.81 52.9478 1.66034
2141.9 50.1491 1.6368
2524.11 60.3472 2.14734
1821.08 45.3519 1.7096
2251.66 53.7679 1.77468
1620.37 49.7697 1.77102
2397.52 49.6979 1.74749
2074.7 48.189 1.72189
2546.47 61.7681 2.40183
2103.75 54.9843 2.16615
2629.58 63.5937 2.52139
1670.58 45.4855 1.84503
2119.02 54.2095 2.3291
1490.31 35.1318 1.50347
1167.02 24.8705 1.1223
1311.25 43.9717 1.87807
2082.09 61.0759 2.79603
1529.69 62.0779 2.88878
1942.96 63.43 2.95702
1592.36 46.8876 2.32505
2278.97 70.485 3.49621
1451.73 50.217 2.47045
2034.28 83.7613 4.43017
1871.04 67.3983 3.71608
1633.36 77.5535 4.32355
1638.14 54.3598 2.97666
1010.42 37.1005 2.0695
1830.91 69.9665 3.78166
1016.49 47.0881 2.66446
1360.42 56.9331 3.26748
1453.82 53.4384 3.14329
856.457 35.0677 2.30654
1304.92 53.5186 3.15569
1140.03 51.5288 3.24486
1121.65 43.5259 2.67407
1261.87 77.0719 5.04803
1170.12 42.462 2.818
645.252 46.173 2.97677
1115.15 35.5311 2.45369
1069.43 56.5766 4.15632
1174.17 48.9799 3.64249
1072.03 53.5851 3.79303
1028.7 52.2336 3.83932
543.45 36.6191 2.75354
1226.86 62.527 4.89376
672.616 36.2448 2.75554
742.406 30.0509 2.32066
907.584 54.3236 4.34467
848.352 38.025 3.10062
1090.17 55.9993 4.43755
668.319 35.7083 3.00887
720.322 37.495 3.27766
967.434 52.1886 4.26835
622.085 43.3604 3.64357
971.261 61.3677 5.54085
467.323 36.5622 3.54255
1495.94 86.2663 7.35323
1119.51 69.4454 6.46612
778.643 61.6977 5.46634
919.988 60.1461 5.92389
759.836 45.2567 4.16842
868.551 53.2795 5.23261
607.108 46.3589 4.57077
722.234 42.335 4.0027
356.008 39.6587 3.93471
579.958 41.4216 4.15705
578.091 29.0144 2.88333
479.426 44.6362 4.54893
649.437 52.7501 5.60303
535.912 43.5956 4.9837
703.488 44.9543 4.94342
679.529 47.7179 5.22024
787.36 46.3295 5.12782
661.62 48.0543 5.56073
681.431 52.8813 5.94614
501.43 49.9615 5.80583
534.135 53.3585 6.01334
553.018 56.7143 7.03033
588.284 44.6665 5.17543
368.064 31.4679 4.07618
425.696 37.8254 4.67469
441.6 48.7911 6.01697
398.556 34.5086 4.46958
509.444 41.7796 5.36569
501.25 51.9134 6.79185
503.259 37.1665 4.64205
858.84 80.0037 10.9708
496.614 50.9542 6.93006
467.079 45.3602 6.51374
543.176 56.2588 7.38924
439.622 42.2209 5.69946
416.652 35.5167 5.03033
489.797 41.6347 6.14361
469.266 36.6772 5.44776
458.118 37.0044 5.7081
532.796 65.2802 9.24058
433.986 40.2009 6.07516
671.806 75.0783 11.8592
524.206 62.3283 8.81253
374.726 37.9637 5.94375
397.234 49.2313 7.4018
473.869 45.1666 7.38054
394.991 45.9561 7.49948
619.214 64.6758 10.1493
401.126 48.4168 7.6499
395.648 56.8585 9.95801
320.347 36.4764 6.05689
504.249 56.8749 9.1978
373.504 39.2319 6.69623
495.767 68.9672 12.05
422.423 38.9548 6.46032
311.806 36.2545 6.52116
434.259 57.9638 9.94303
291.901 42.7472 7.16264
371.95 39.786 7.21704
406.26 58.5739 10.9952
332.358 33.5294 6.22268
498.1 57.2681 11.571
395.308 64.3836 12.166
434.048 48.3031 9.09095
305.019 36.3309 6.30414
280.204 44.5855 9.30043
273.247 43.4766 8.38025
358.261 49.2367 9.31312
268.476 31.5768 6.36685
319.298 50.8449 9.85271
323.298 48.6622 10.183
362.773 50.0146 10.6006
279.594 38.2987 7.90917
418.048 71.6671 13.8406
297.257 31.5483 7.04926
272.837 32.7422 7.29635
234.8 36.1837 7.3502
219.878 25.5366 6.25334
294.721 33.6445 7.23345
270.018 45.71 9.95052
474.732 67.5198 14.391
360.069 47.3325 11.3704
340.282 44.1997 9.17411
220.902 39.4312 8.53791
288.942 30.7788 7.1868
221.341 29.513 6.80804
408.265 48.603 10.8623
224.643 40.3426 10.0865
284.231 39.861 9.24315
344.438 56.9558 14.2488
310.579 39.9624 10.54
357.868 37.3273 8.24489
287.114 45.9163 11.5527
243.571 43.968 11.5678
302.716 47.1829 11.1974
231.018 35.9944 9.21325
248.475 37.3791 9.94219
336.864 47.9713 12.3963
271.945 47.2568 12.1378
241.168 47.7662 12.8254
278.741 49.5664 12.9394
243.806 54.7111 14.6848
207.491 40.875 11.0932
250.625 36.2287 10.6113
287.651 49.6173 14.2817
228.577 42.8681 11.1155
269.233 48.2204 12.4276
167.46 30.9751 8.9317
237.93 47.8692 13.3823
251.499 37.9832 10.6004
276.521 46.8407 12.9878
208.019 39.2208 11.4026
219.487 31.5631 9.19312
173.036 30.5034 8.95463
242.722 39.2945 12.1467
195.167 56.5576 17.2693
290.976 58.2338 16.5463
237.977 42.231 12.4576
267.33 50.3815 15.0003
247.22 43.0482 13.8158
188.501 34.246 9.48835
264.01 40.4235 12.134
257.619 40.6725 13.3636
200.227 39.4645 13.4033
202.931 43.834 13.2495
253.085 45.4703 14.1739
195.428 28.6869 10.0587
237.684 49.6509 15.4751
114.082 34.3506 12.7652
248.297 60.5405 18.4212
154.695 31.9971 10.4995
141.436 32.3675 11.1757
199.963 35.873 11.9767
197.67 35.9074 12.5082
197.393 40.3161 13.2082
208.135 47.832 16.2532
189.401 40.2872 13.8158
200.426 51.6216 19.0582
183.451 33.4164 10.6102
267.365 71.5798 24.9664
122.475 23.2394 9.05419
201.286 43.2138 14.4334
236.631 43.6536 16.5147
189.106 36.6881 13.9117
107.095 18.5519 7.89261
210.668 44.3879 14.2881
212.85 40.7497 16.2393
228.256 55.4219 21.0652
142.143 40.6704 16.4467
167.601 51.2688 17.1623
137.202 40.6452 15.3741
127.939 31.3421 12.2019
178.931 38.2634 15.8924
173.073 38.7504 13.7474
111.724 26.5677 10.1685
166.62 40.9074 17.7075
150.999 41.5772 16.8661
144.246 26.5171 10.2051
106.527 17.5055 7.96419
155.076 32.1393 12.4459
178.284 46.6792 20.1535
114.723 30.964 12.2618
197.082 59.823 23.6535
102.307 27.1046 11.4684
107.722 31.3371 14.0297
149.392 41.4202 18.0976
197.788 49.8582 21.327
102.644 32.1989 12.7332
126.924 47.202 20.7737
121.882 44.0426 18.3128
98.9405 29.2344 13.094
136.199 38.6012 16.3686
188.181 45.5109 18.9606
115.747 34.0999 15.7863
185.452 52.8979 22.7161
148.852 44.8654 21.3209
127.928 25.2549 12.6464
124.695 43.7237 19.7873
93.0402 21.5786 9.69439
101.464 32.0035 13.6271
144.323 41.495 20.6466
144.933 36.2953 16.1715
107.975 22.1632 10.6467
131.301 39.8857 17.4086
93.9879 33.9864 15.8638
107.36 39.0418 18.5752
145.136 43.2559 19.3493
104.189 38.4578 19.3863
111.269 29.0343 14.9311
138.977 41.4004 20.7015
117.367 31.2954 16.0341
96.4805 39.6153 19.249
64.267 29.8721 15.8321
126.377 43.0402 19.8103
116.068 49.8029 25.5046
115.628 35.7582 17.5012
94.8276 38.4393 20.1028
87.9098 32.9781 15.7936
71.3795 34.1916 18.3567
100.577 27.0411 13.7644
94.6552 32.8949 18.2483
95.6911 33.058 16.8021
137.907 23.6026 11.0574
91.9826 25.5624 14.6165
93.817 32.3565 16.4532
116.661 44.9181 23.6848
106.81 27.6245 16.3005
111.925 29.0621 14.8552
98.7798 25.0827 14.2468
110.047 26.4977 14.6078
68.1957 22.7251 12.5814
83.4659 34.9072 21.1338
84.0499 31.4031 14.8075
93.0927 34.8284 17.935
83.4842 29.925 18.3511
79.2237 31.2403 20.7958
125.913 32.8596 15.8052
106.552 35.586 21.4073
128.528 51.9544 26.5232
102.557 39.2039 26.3112
121.014 43.1634 24.6647
93.4433 28.2694 16.1398
97.0188 41.4869 23.4666
116.412 37.2566 21.2478
92.3773 30.1156 18.3192
66.6603 15.6506 9.58984
120.757 40.2476 22.6128
78.9881 30.9202 20.4985
67.2677 27.0622 17.0433
115.296 41.0238 23.0591
82.6527 34.9703 21.7558
122.455 42.289 22.8667
81.1321 31.3823 20.0594
69.6921 22.9754 12.2542
82.0049 30.5372 19.2101
61.074 22.4211 14.1491
65.7506 36.5935 24.2738
109.984 34.0891 20.3395
64.0596 23.2682 16.0999
77.4004 24.7337 18.2204
105.071 39.6044 23.6944
87.5741 29.4244 18.2757
74.0334 26.9871 18.2737
69.5596 24.0578 15.3352
90.1097 32.8504 19.6895
83.8019 26.1509 19.4851
71.4418 29.0683 21.0042
68.1854 22.3988 12.792
70.5363 25.3141 18.405
57.0228 23.7311 15.5536
75.3895 23.3343 14.8564
60.9019 25.2391 18.6646
89.7253 27.6144 21.074
75.7544 31.0707 20.609
81.541 30.2658 21.3516
82.7444 30.6823 20.5749
85.3704 47.3353 34.9116
72.2051 23.4672 14.4688
51.439 22.6164 16.371
56.7459 27.4008 21.0924
66.3677 31.6849 21.7274
65.9753 33.3477 22.6733
98.4685 39.2686 25.9274
54.917 21.177 17.953
53.8524 18.6364 15.3408
84.909 29.0456 21.5668
79.0782 31.2289 22.223
71.1528 35.3803 25.3255
110.019 47.6359 32.9711
53.0848 28.9271 25.6673
77.5727 38.3829 26.0817
59.4252 28.347 24.0088
77.6262 31.7578 25.0003
83.7792 35.3888 24.1358
91.6469 34.416 28.5075
51.5963 23.5289 14.9723
89.7695 26.0642 19.2609
50.3933 26.369 21.0749
78.0517 28.0003 19.5782
74.2376 35.352 28.8067
62.859 24.479 18.7499
60.1382 32.9271 25.0627
70.5331 40.5315 28.1425
71.9496 28.9558 26.358
62.5468 31.8012 25.7787
61.8359 38.1416 32.279
69.1011 30.1175 24.0196
70.1103 26.2646 19.9871
63.5943 22.2569 18.6796
47.4908 17.501 12.674
48.4106 27.4305 22.2986
65.5929 24.454 17.9435
45.5404 31.912 27.8029
73.4526 26.5619 19.7914
70.3535 24.57 19.9659
78.6549 33.4289 28.8258
56.317 24.1988 20.3129
70.7072 26.2163 20.7269
60.8955 28.842 22.0477
53.8546 20.9197 20.3122
59.0427 25.9363 17.9251
59.3874 36.2037 31.0048
73.2244 47.2449 40.3173
73.2225 32.6788 29.7403
43.668 25.0674 22.6511
59.2199 29.7818 24.5136
62.2939 28.1175 28.8286
78.2074 34.0081 25.196
72.9023 30.111 26.6039
72.2441 41.5683 37.7588
47.5369 22.0035 18.5001
77.7343 37.0244 30.0915
37.8772 21.1737 19.9149
43.6462 22.0253 20.46
51.956 24.4567 21.4996
61.0967 30.2567 29.1844
46.7198 23.1553 23.5706
66.9467 24.6372 20.2053
72.5372 31.146 26.5819
58.2495 24.2585 24.1313
46.9395 21.739 18.0402
53.5531 22.4869 19.9172
57.8107 46.4649 41.182
49.26 20.756 21.6839
64.9424 26.3847 22.2014
43.1595 25.1069 22.5588
48.7827 26.6272 26.7336
58.6679 33.7964 32.141
40.0682 21.9076 20.7691
45.6077 24.2466 24.1494
46.9758 21.6766 21.2381
80.6851 45.2575 37.265
36.1902 20.2171 20.8359
52.3617 29.4488 32.1717
47.3946 31.6242 30.9483
64.8795 34.2457 30.346
46.2745 29.1622 31.3054
47.2164 19.2913 20.9277
62.1609 24.7746 21.5991
37.2738 17.1318 17.5086
48.9629 23.7754 23.7559
38.5761 19.869 24.5204
51.2892 24.8291 24.7259
64.9248 24.3157 21.5025
52.5809 21.2774 20.8134
45.1968 25.2714 26.0279
77.0914 34.4826 31.2551
55.2405 23.8038 22.9939
57.744 27.0174 32.4937
49.923 17.1672 18.9028
40.6359 19.7395 18.5924
37.2827 14.6206 13.8585
41.0526 17.7163 21.5087
27.7831 23.2031 34.5872
73.5127 38.379 29.4758
45.4469 26.5383 28.1953
38.8496 28.4871 29.5167
53.2276 24.0478 27.7862
42.8547 13.1847 11.0996
35.2739 15.9552 16.0076
37.3744 22.9282 28.4973
31.3983 12.2687 12.8065
45.95 23.1764 25.4538
37.1458 19.0058 23.7666
50.947 32.0351 35.034
63.6942 34.0579 34.4517
31.5864 14.2105 15.0785
41.057 26.266 29.1358
28.3526 20.565 24.716
32.2809 28.6255 31.902
45.3384 21.1263 25.3918
46.8881 30.9908 28.233
43.5043 20.7523 22.8988
41.7635 31.7671 38.0595
41.2121 25.583 26.5174
41.944 26.0613 29.7755
38.9523 19.2808 22.0409
32.7882 18.9383 24.6829
42.9953 22.3504 25.3367
58.2382 33.007 35.2126
36.1914 19.572 23.7507
42.618 24.1287 29.419
50.0296 22.621 28.6451
41.1465 22.8842 23.2906
47.5671 24.234 25.3202
59.514 27.5725 33.1977
43.4238 27.691 27.3445
45.4751 26.4418 30.1688
30.2113 23.6392 32.863
44.5691 29.1526 34.1603
34.179 35.5685 43.9526
40.3415 28.8428 38.1238
36.8089 13.4947 13.2827
45.0715 33.8161 39.1075
44.3193 29.772 35.6316
34.9767 20.045 22.3133
37.0832 18.856 22.992
27.0867 18.3239 21.9853
35.7326 18.544 23.8689
48.1289 35.055 39.7106
24.2255 21.9229 26.0111
32.8625 27.3263 39.2991
53.688 34.6064 40.6299
45.4545 24.6547 29.0172
35.9875 21.9797 27.8179
34.6707 25.5109 37.4798
29.4917 24.5699 36.0357
41.2431 19.8216 17.9663
37.6319 22.0591 24.7235
21.6142 16.995 20.4594
28.0111 16.4215 24.125
46.9073 26.8895 32.4205
32.6237 14.5031 20.8385
32.9652 12.3143 15.9325
35.9175 21.7555 24.4624
33.231 29.4179 38.2282
35.0597 23.0306 29.6192
41.6992 25.8358 29.6851
43.3036 22.3094 36.1052
37.3484 22.8397 23.357
37.4952 23.5183 29.6654
32.8285 17.3629 23.8155
35.265 24.1118 35.4452
25.8676 17.5297 26.0113
39.8531 21.3677 26.6802
26.8846 27.5705 41.9736
28.1143 17.9573 22.077
31.5144 17.6758 22.0847
38.5904 29.544 40.4746
26.9413 11.4756 14.7458
29.5639 19.4864 31.5412
42.3141 26.0867 32.0968
20.1889 16.0876 17.4292
30.821 14.7021 23.0281
36.5581 25.5641 30.2986
34.0312 25.3103 35.4115
22.9248 14.8694 24.5443
33.8566 17.3736 21.4511
38.7485 22.2478 32.5525
37.8938 17.995 22.2642
32.7852 18.0815 25.6987
39.9176 20.5531 29.522
25.9811 19.6307 30.847
37.3878 19.1907 23.1636
28.1076 18.6503 25.4141
20.9575 16.262 23.3373
22.115 19.1878 27.9645
30.1302 21.0332 29.6738
27.7565 16.785 26.2019
33.3309 17.2605 21.8096
37.8138 24.6737 35.7684
35.5365 21.7861 32.0027
28.1249 17.7494 22.8191
29.3533 23.281 32.9706
24.7068 18.7763 27.3391
37.4939 22.3973 31.2122
34.3209 24.4019 35.8548
37.267 26.4731 37.9398
18.5091 21.9826 31.2311
27.85 12.0812 24.0587
30.1093 19.4464 24.6128
19.8333 17.0417 24.1351
23.8778 13.0868 23.2557
42.8082 24.2196 34.906
27.605 16.8786 25.7923
20.4466 20.1462 27.918
25.8514 17.6302 27.7674
34.4527 17.12 26.0515
34.1952 23.8666 38.3163
24.0647 19.8523 23.5612
18.8473 14.3402 21.2173
20.1688 20.0725 27.807
21.8859 21.8218 34.4439
25.9493 14.338 20.7427
21.856 14.4339 25.9048
30.0431 22.4674 32.4597
28.3788 26.3175 41.2638
26.7506 20.3221 37.0541
25.7953 24.1783 46.5828
36.9573 24.5879 30.9134
24.3873 12.9343 20.6025
25.8508 14.3873 21.6215
22.6747 12.974 22.5762
21.8467 17.6635 23.9729
26.199 24.7792 39.0525
30.8147 16.0525 26.3674
25.7984 19.5886 25.1651
27.6906 18.7866 29.4685
34.4236 26.0898 44.5481
22.6344 23.1871 41.6249
29.8897 17.6066 26.3055
29.8791 17.6339 27.769
30.6436 16.8382 24.2212
26.1673 17.9846 26.5856
24.8017 16.5002 25.7683
23.3183 15.5729 32.097
26.1019 22.9893 36.5883
25.8592 13.368 30.1021
37.2774 27.0113 33.3158
19.0818 12.5627 23.8015
29.0175 22.9674 40.6875
29.8639 17.8207 22.9722
19.9917 12.6489 24.5721
25.0612 16.8364 23.6117
24.8337 16.7643 27.3421
23.9742 16.0533 25.545
15.0148 11.0364 19.8503
23.1445 20.4373 34.8628
31.9209 22.993 41.6471
28.215 20.42 30.8346
22.518 12.2805 23.1312
17.6618 12.3224 22.3021
23.7068 22.4002 36.5257
24.2979 10.6182 19.1823
20.794 22.867 42.1435
24.8799 12.6259 21.9097
26.5675 18.9885 34.7027
26.2372 15.4806 26.3694
29.3549 17.5254 31.5164
22.3711 16.5036 23.0281
21.0953 19.2901 33.4629
25.3873 22.5104 37.965
20.5281 14.6074 25.316
22.4035 11.5234 24.1816
27.5634 19.3343 37.0655
26.7215 24.9223 36.13
20.5705 12.5684 26.9245
26.9932 24.1439 35.5322
23.668 13.45 21.6499
22.1002 18.8296 37.244
22.5699 16.1657 30.285
30.1725 30.2265 51.2643
25.6309 17.9744 30.6772
19.9607 11.8613 23.2462
19.6914 15.5207 25.6599
21.6882 21.4893 39.8443
21.7455 12.6204 27.1163
24.8249 21.908 34.6957
23.732 17.113 29.2762
25.2725 18.3934 28.387
20.5471 14.0109 28.2707
24.5385 16.6042 27.6057
23.2965 15.6923 33.4812
19.2748 14.124 29.4916
24.4714 14.6637 23.4486
21.2832 19.8865 36.453
16.3682 13.3699 29.1327
28.5964 21.9764 39.2032
17.9383 11.2249 18.9014
18.5331 18.8905 40.8015
19.9503 18.2516 33.7901
23.3591 19.2254 28.6967
19.8822 11.3307 22.4667
23.7427 14.5637 34.3334
21.2796 7.8632 15.8494
18.3235 17.6145 31.2256
13.9799 14.3159 33.6813
26.891 17.7638 28.8031
27.0445 25.9523 42.779
20.5454 12.695 23.6972
21.7987 18.4075 33.4586
12.8816 12.9327 22.5635
16.3818 15.1171 27.7445
19.1327 14.6113 27.677
16.8149 13.5246 25.4315
18.9178 18.7588 38.8697
18.8699 11.7533 26.2079
19.4092 11.3959 20.9916
21.4762 21.4105 40.7738
17.8676 13.7907 28.8487
21.0577 15.1183 27.7793
17.6357 20.9573 32.8008
16.1291 16.7744 31.2972
17.0712 11.5191 22.3518
16.4756 10.7641 25.3949
17.8268 18.8964 38.7153
19.7857 12.9047 26.017
22.9633 16.9836 40.0957
15.7152 18.8523 30.334
17.8614 6.42335 19.7227
27.909 17.9057 25.7525
18.2131 13.8085 28.5348
23.6441 31.4856 61.6275
19.9267 16.712 34.2019
20.3952 16.5797 38.8871
26.1849 16.0724 29.7766
20.3487 21.0939 39.4772
17.3128 10.7361 18.119
21.8833 17.1306 30.4763
13.5753 15.3937 36.5674
19.1555 15.3017 35.9309
21.5212 17.3686 29.8761
15.3258 14.9847 31.4594
17.6192 17.6923 42.142
21.6033 16.173 30.5316
17.6848 12.1576 22.1966
16.5863 14.6579 35.5865
14.26 14.4495 26.5392
18.8709 11.7125 23.2925
16.3349 12.0477 25.454
15.8637 11.0608 21.4638
11.6922 13.3518 30.249
19.2607 17.7291 42.0653
25.682 18.834 31.0353
12.6556 12.153 31.658
13.6517 11.9845 25.6784
16.0316 15.1735 34.9148
27.3588 14.9862 24.5031
14.4751 13.6956 29.5693
19.0729 18.2256 42.8233
18.3897 10.5871 22.7923
19.6678 10.3207 22.5573
18.688 12.3828 30.7857
19.8543 18.3568 30.9337
16.2465 8.77864 22.3498
15.5835 10.4479 15.6633
15.8059 7.7878 20.9694
15.7741 11.1645 31.9388
23.0622 19.5679 35.0768
16.8215 13.8107 26.6054
17.2242 16.5677 37.9816
19.5809 13.6724 39.8169
17.9321 15.8014 37.8419
26.759 18.2781 28.0138
17.5025 17.6541 43.8499
15.1421 16.6144 32.0078
15.1886 12.3427 24.936
15.4428 14.8823 33.8321
16.8691 16.3706 45.3212
13.9854 16.8194 31.6994
14.3413 14.7492 40.9766
24.8809 15.3713 30.398
14.1171 10.5274 27.2029
22.2364 16.8873 31.8178
12.854 12.5921 33.2398
15.091 14.9567 26.8907
15.0529 9.0083 18.5197
18.3327 13.1996 34.4904
20.2298 17.4791 36.2608
15.063 15.3999 34.208
14.3529 13.3363 33.2666
15.0008 11.2505 24.31
12.904 17.9548 32.3782
16.9177 11.7437 24.4573
13.4032 11.3183 24.8718
14.3022 8.6953 24.2639
15.9669 13.5691 35.6924
16.6266 13.8564 27.4456
14.5742 12.1625 22.7623
13.8685 9.4038 27.4619
15.7204 19.6259 45.8263
21.0068 12.1975 21.869
15.155 15.7573 38.8901
18.0067 16.9065 37.0589
17.6822 11.8846 25.9394
16.671 9.36811 24.0524
16.9783 13.2907 36.3102
16.7624 15.3013 33.1683
12.8863 14.7474 28.0519
12.0802 12.7504 27.9192
14.2849 15.324 35.7606
15.8992 9.50771 26.1202
15.3665 11.7329 28.842
17.9225 18.0681 37.9365
15.0793 12.6106 34.4006
15.3524 8.24644 14.8081
15.921 14.9931 38.5668
16.1313 14.0904 33.5594
13.0647 14.1795 30.6843
13.4275 10.1361 23.6006
15.4004 9.75491 25.4489
10.2926 9.72121 22.2186
14.0148 16.8807 33.6223
13.698 8.11214 24.0015
15.6184 8.94122 26.0882
16.275 8.10262 18.8629
19.0541 13.9035 26.8877
15.2177 12.5547 34.0242
15.9655 16.012 39.5541
17.5635 16.9213 33.7373
15.0508 12.0204 39.6775
16.5632 12.6796 26.3701
12.2891 10.7168 28.8228
9.96388 9.06781 23.6275
13.1671 9.92595 24.9003
14.511 9.52121 28.4017
15.0873 17.2478 35.5772
13.0079 15.8548 38.6903
15.1019 10.1293 18.1053
11.1226 13.7105 35.5287
14.219 11.4545 26.9522
15.9796 12.3265 30.6476
11.1286 11.5721 39.5266
16.1923 11.7988 25.3013
13.57 5.68212 16.9383
13.8469 12.5233 27.8546
16.8715 11.7125 28.049
10.5469 10.4464 28.8884
14.3395 11.8313 37.3489
16.7341 13.9621 26.9569
15.2156 13.1678 34.5441
13.0954 11.6628 31.9726
11.7773 12.1264 24.4551
11.2943 12.0057 34.5506
12.3417 8.39139 17.1484
9.63982 10.5865 26.7079
17.5491 11.7187 38.4735
16.8485 9.04159 22.1244
14.3906 15.4401 32.7259
16.4673 15.2897 37.9768
17.2747 15.4266 30.5848
15.1615 11.4161 30.4621
9.83523 12.5686 34.0974
17.8273 16.2827 46.637
16.6716 12.9479 28.5148
12.2347 10.8824 35.6939
13.5375 9.90483 24.1359
10.4938 10.6698 30.6603
14.0154 11.6084 31.6188
12.9919 11.2231 29.863
14.1341 8.30334 23.1144
14.0674 5.97045 15.7826
10.1072 10.1997 21.8897
11.8409 6.85239 22.0534
12.5077 12.6928 31.5216
14.7231 14.0256 39.8851
13.5587 14.1941 31.3944
16.9933 9.46833 22.5295
12.6436 12.8438 41.1964
12.8221 15.6656 30.0981
12.2206 13.7619 39.2148
14.3522 11.7427 32.7771
13.522 8.45167 13.3062
13.7288 9.40308 25.4268
12.0507 11.0811 29.6268
13.5802 9.77171 24.6704
14.5669 13.0072 37.1777
12.7232 8.31313 20.4183
14.2053 12.5362 28.4271
13.211 10.7379 28.239
11.3903 13.1102 37.4872
13.4951 9.46174 31.0103
13.9194 11.2281 25.6389
10.6652 12.212 41.4552
12.0423 9.6302 30.6891
14.6231 10.2369 30.5681
13.3052 9.50979 23.6854
12.0973 16.5295 40.1146
10.1873 12.6334 29.8002
17.428 13.9051 33.4561
13.159 10.7343 28.1111
11.6713 10.3397 32.0132
12.3456 8.38656 24.5856
11.8974 8.55797 18.3417
9.60827 6.37923 25.8203
12.3756 11.185 22.9362
13.5788 9.96532 31.6379
12.5728 8.88855 19.3557
12.7511 11.8635 32.1417
11.0286 8.77798 25.143
11.284 10.9863 33.9177
10.5431 10.3365 33.258
9.33802 12.3012 29.1682
9.30581 8.90631 34.9367
13.0364 13.4718 33.0305
10.6134 11.659 40.0091
16.6262 10.9762 23.5207
10.4348 9.16814 21.7492
9.77366 11.6675 33.1374
13.5322 8.85932 26.4875
15.279 12.6783 31.2189
11.2453 9.8872 28.8432
15.0046 8.88982 27.4784
13.0601 6.22115 16.1378
12.1782 11.2756 24.7854
12.0461 8.02681 17.7405
10.7893 7.46803 34.4233
12.6853 13.5412 30.9111
13.634 8.4798 20.6069
11.1522 9.10262 31.1746
10.2414 12.8856 29.5367
11.1516 8.34384 30.0834
9.69021 8.95544 22.2365
9.99345 7.72568 22.4777
12.7177 12.1995 29.1175
9.76857 7.0739 33.3786
11.7818 9.97525 23.9855
11.0379 9.57094 25.2966
9.26317 9.09333 30.8207
9.982 7.31743 35.5627
12.0349 9.41799 16.5125
11.769 9.8268 24.1047
10.5229 12.7833 33.9451
9.77549 7.57026 21.2298
10.0145 9.89027 33.9138
12.6895 8.06814 28.6231
12.3543 9.09718 22.786
14.397 9.03414 22.0321
8.71504 5.78395 21.0803
11.4327 9.37519 30.399
12.2665 11.2428 33.8514
12.7204 13.0355 37.6299
15.7714 11.4778 25.7593
10.8796 9.09654 23.8171
11.5355 9.86173 35.2347
12.5791 8.10055 16.1872
10.1893 9.40855 33.3284
10.0671 9.77832 22.8808
9.63341 8.18659 22.362
10.6731 7.35922 30.0229
8.88002 12.4986 34.3055
11.5346 6.95166 24.3838
10.1427 11.4806 31.0088
11.3549 11.2319 28.27
9.78152 8.8244 23.9312
11.3742 8.53053 31.2048
14.4821 8.65469 29.6133
14.9667 13.4454 35.5158
10.7369 8.87424 24.7811
11.5102 7.78221 21.308
10.446 8.15805 19.3989
10.3503 10.7321 32.801
14.8341 10.2631 32.3956
9.35003 8.39104 22.2521
9.4957 6.51944 21.7552
11.1956 11.7364 28.6783
11.047 5.24671 18.792
9.6966 10.2233 32.8772
11.9663 11.2392 29.1156
10.0052 6.27842 26.3051
12.1226 9.64822 36.1135
12.4076 12.0881 27.5641
7.23279 8.2295 30.7732
9.4648 7.39819 29.7671
10.3408 12.1683 30.9226
8.23299 7.34849 23.9595
7.88418 10.1764 39.3105
12.9033 13.1407 25.0751
9.7598 4.81231 14.4825
9.1705 8.20164 29.7164
10.0278 10.3375 28.868
8.14194 9.09756 24.942
8.069 9.45133 30.4749
8.17179 10.0409 30.6167
9.98562 6.68776 25.3194
12.1832 15.1379 36.3514
11.2665 7.91237 25.4578
11.0792 9.01712 25.2845
10.2709 6.94842 25.9912
6.3045 8.87015 24.9711
10.0847 8.15544 27.2895
10.3054 7.2702 24.6725
10.1886 13.6734 35.3144
9.33869 8.93136 29.3206
11.6105 9.65915 28.8196
11.8844 8.91893 23.7203
9.48041 8.68696 31.6431
11.3721 8.83715 26.9713
7.47178 6.40423 18.1387
9.5997 7.4371 19.9038
9.86637 10.7703 41.2323
11.3984 6.84994 18.5345
7.71081 5.50904 21.6098
11.6773 6.55591 22.1131
11.253 11.3529 32.4072
10.2203 6.00708 21.1297
10.7145 10.2209 28.833
8.52737 9.02678 36.2173
9.7303 11.3844 36.2297
8.82245 6.48263 21.3296
9.73609 7.60356 27.4868
9.12839 9.61709 36.3934
11.3892 11.142 29.2193
10.2849 10.2165 38.1858
13.1211 7.04837 26.9551
10.3838 9.60954 20.1419
10.2816 9.05585 31.0537
9.24834 9.31021 23.532
9.03937 6.69626 24.69
10.2012 13.6291 37.5221
10.5426 6.99628 17.223
8.22048 4.42897 18.8403
10.1622 8.13804 31.4037
12.4846 10.9515 37.3446
10.8704 8.34946 27.3239
8.51526 7.35258 28.0225
11.844 10.0151 24.3122
12.9937 9.9715 34.7186
9.55477 9.08499 33.5444
7.39853 6.42118 19.9778
8.80134 6.0272 14.7284
8.23649 10.4164 31.3681
8.24241 5.66313 21.2316
8.91181 4.72911 22.0578
10.5724 10.6278 26.597
7.71666 11.7763 39.858
9.12866 6.24628 22.6833
8.30851 5.37154 20.8306
11.5629 10.1088 34.5872
12.1085 10.55 34.5401
10.8507 4.90748 16.1001
7.13967 7.02958 17.5271
8.73944 6.43698 22.8681
9.69253 5.91189 29.4753
11.2202 12.0829 30.0275
8.34292 5.84194 32.1565
12.4437 11.7707 32.39
10.0867 8.78079 23.0014
8.05238 7.04659 25.0049
8.82548 5.10272 17.7695
8.66333 8.16475 30.6364
10.3403 8.59022 24.9408
10.1055 10.9138 41.517
9.10521 7.57148 22.1412
9.73678 11.2212 35.1873
9.05979 7.04873 32.026
8.49983 9.91726 27.6353
10.4304 9.34433 34.0454
12.3964 14.3567 34.9471
9.24406 5.28282 22.623
8.45474 7.00287 24.7593
10.0691 5.99058 20.1063
8.61297 6.67747 26.0807
9.27135 7.07142 25.2418
9.21428 10.3409 24.9349
7.72195 7.29652 27.1306
8.51456 8.39173 27.6907
9.68119 6.13787 23.78
8.16174 7.32847 24.8556
9.52179 7.37337 19.38
6.03442 6.26454 26.0735
7.84193 6.87642 25.9095
9.73963 8.15577 26.5903
11.0749 8.27796 25.0159
7.83916 7.52169 18.5243
8.06668 4.92044 23.943
9.68855 10.3027 29.6815
7.92887 5.88049 21.4097
9.0599 4.96015 20.5982
8.9485 9.95921 26.9575
9.79254 7.71221 29.5853
9.97342 7.9518 24.5797
7.71742 8.83917 30.6731
8.65033 10.1854 34.7177
8.87862 8.07637 27.2811
8.71677 10.1634 33.8082
10.4727 8.09299 35.0285
9.80745 8.16653 20.4954
8.60886 9.66272 25.7189
9.65624 6.96644 29.6262
9.60171 9.09535 29.5416
9.152 8.73277 27.8309
7.99251 7.99142 27.7672
8.72513 6.64557 22.1594
7.95251 7.23242 29.0694
11.569 6.98278 21.097
10.0751 5.82845 19.6047
9.70178 6.21868 20.8604
7.74408 5.81691 28.0616
9.36025 7.98238 26.8068
8.52234 7.69135 24.8452
10.1036 6.74437 21.9177
7.86248 6.07078 23.559
9.66987 8.5383 28.0347
9.95548 7.50481 26.4908
8.59988 8.12334 30.8908
7.98434 7.57603 19.2819
8.44478 5.78124 22.6105
9.65957 4.92967 24.2854
10.0029 8.11785 16.8948
9.59543 6.74649 20.9688
8.18874 6.66883 33.5523
9.27901 9.68418 28.6906
10.2805 6.13095 16.671
8.56472 6.36914 26.0063
7.8307 5.35933 26.2492
9.12467 10.1714 25.6665
9.87954 8.60953 23.7596
8.00845 6.74165 32.0899
7.19236 5.50055 20.283
6.81485 5.73888 25.4277
8.92256 5.76178 20.6053
7.51619 6.75984 21.7949
8.2977 6.15607 23.8395
7.15492 6.44071 21.7233
6.84622 7.76858 29.0666
8.4605 7.81841 31.8116
7.64045 8.95631 32.0577
9.95511 9.5314 25.9444
9.74084 8.34145 29.2374
7.70598 7.89821 28.3847
8.87638 5.37711 23.3823
8.54592 9.37838 33.4781
10.0397 7.59919 19.378
8.44353 7.2506 24.7033
5.84009 4.68967 25.7575
8.94273 9.7116 35.8386
9.87706 10.356 28.655
7.11111 4.34952 16.9916
7.88902 5.96278 27.0697
8.21884 7.57197 18.985
6.7003 7.86667 30.1825
10.5247 6.30743 22.94
8.84897 6.64088 23.6498
9.39213 10.988 38.6223
10.9187 6.79786 20.8262
8.03349 7.1983 27.3444
10.095 6.46521 29.0059
8.31207 6.86319 24.9438
8.53955 7.32794 27.9288
9.07766 6.76189 26.362
8.84681 9.06646 33.3625
8.40404 9.34363 30.9961
9.7635 6.31737 26.9687
9.34267 7.30891 29.4891
10.694 7.85496 19.6512
8.54619 8.83977 23.6978
7.73369 6.03863 21.2948
6.59589 9.99387 43.7318
10.6554 8.02632 31.5249
8.18068 9.49688 34.6944
8.02492 8.54638 39.4259
7.74988 8.70813 26.8655
8.72602 6.01809 17.9315
8.51267 7.37845 23.2847
8.79872 6.03529 25.5851
9.20872 6.85497 28.5573
7.61516 6.87594 22.2807
8.35698 9.12749 32.4702
7.53892 6.01492 20.0738
7.97879 4.39325 21.262
7.49297 7.03787 21.5343
6.85525 7.6274 26.8943
7.97904 5.09558 22.7228
8.38156 6.37761 25.3277
8.91354 7.92608 32.8046
10.0589 6.47344 19.1623
8.77538 12.6945 47.6165
9.46801 7.57491 26.108
5.95301 6.4886 32.8111
8.87884 9.9215 37.5943
7.29342 6.13421 22.6874
7.41296 7.06747 24.4754
7.53374 5.37517 17.9324
7.73137 6.09088 24.553
9.15277 7.90046 25.121
7.28034 5.72826 18.5128
6.4958 5.81686 23.1256
7.95394 7.39023 25.7424
6.25516 5.29841 17.835
6.84841 7.63794 27.0028
7.31409 6.95095 29.0705
9.32046 7.17565 15.3018
7.3606 5.35667 20.2525
8.63035 9.69484 37.2353
8.14563 8.72891 36.2819
7.58453 7.33228 24.1944
7.82517 5.5821 29.5683
7.7121 6.55054 15.0838
7.01412 7.39008 27.0033
9.51165 5.39226 23.2239
9.45477 6.37604 29.4187
8.2198 6.10336 26.7032
9.62409 8.28741 24.6084
7.31734 5.45963 29.4452
8.45433 8.86156 26.6243
8.88234 9.36447 29.6262
7.03593 5.96066 25.9472
8.66652 7.24289 25.8226
7.35576 4.6679 28.6996
9.52533 9.76274 32.9174
6.94543 8.26171 25.3667
8.20326 6.1644 22.4065
6.81472 6.1177 30.3534
8.54964 5.99603 17.9997
8.01704 6.68421 30.7432
10.5345 8.0852 26.3535
7.00713 6.02261 20.2891
8.77477 5.06546 19.5954
7.85621 6.09209 18.342
7.79423 5.78052 24.7308
6.10829 4.7098 15.0323
6.40942 7.04244 32.4974
8.57598 5.38829 28.2971
8.87717 4.38745 17.0429
7.54933 8.24067 23.0443
8.09773 5.43558 19.2657
6.65329 6.84871 25.2344
6.9761 4.56498 14.0642
6.33757 5.38851 25.1697
7.37351 4.51739 11.7974
6.45283 4.06623 20.4576
6.93415 3.71304 15.3041
7.03124 4.83858 16.9408
6.80118 4.66312 20.9284
7.49357 7.37315 32.5299
8.01015 10.5737 34.9356
10.0244 8.04527 39.441
6.82261 6.52338 15.3002
6.55637 6.48992 27.5921
8.21605 3.97738 19.2183
6.68975 7.37162 19.2505
6.49746 7.83616 20.2236
8.43726 7.0089 34.4547
9.11319 6.47693 24.4914
9.23314 7.1122 30.4901
8.04457 6.47411 23.5289
7.44681 7.32554 25.8419
6.2505 4.58572 23.9432
9.30317 6.75477 28.655
6.97051 6.24293 26.3099
7.92526 7.33689 20.6914
8.01453 4.84308 18.2499
8.64981 6.90068 18.0405
6.87148 3.69047 19.1243
5.827 7.79095 29.0026
6.80947 7.87344 32.0322
8.27107 4.84431 17.1369
8.09889 3.78599 15.4088
6.08338 5.94938 25.5154
6.11023 6.88102 17.6633
6.78099 3.83028 21.6464
8.56369 5.05398 18.1211
7.59274 4.96773 18.0545
7.29579 4.0386 12.2814
6.46528 5.67859 29.4253
6.8903 5.72815 31.2662
6.8875 11.1092 41.4893
10.0627 7.78904 25.5286
6.07292 7.32678 20.686
7.5186 6.63695 22.2696
7.28998 5.9118 22.5468
7.53816 4.68322 29.4969
9.41082 7.25016 16.9355
6.746 4.32433 21.7222
6.74163 7.02328 27.9443
8.92619 6.90536 28.352
8.8688 7.74536 25.9604
8.3077 7.08305 38.7015
9.21111 6.93328 23.1235
7.98189 9.68047 26.0277
7.50155 6.33561 26.8468
7.39163 5.32034 20.6486
6.74862 5.29598 20.9337
6.90094 6.53899 25.0083
7.23294 4.40096 24.5009
8.08529 4.97997 12.5815
7.11249 9.35527 33.7252
6.18127 7.89757 27.9184
8.31581 7.12155 19.4191
8.03735 4.70341 24.577
7.65074 4.26237 21.9881
8.11261 5.6684 28.5863
10.3537 8.16502 19.5867
6.57047 11.0548 45.8467
10.052 5.61514 20.381
6.32835 6.73423 24.2631
7.8048 5.39223 26.2955
7.27651 6.18195 32.2165
8.15772 7.34739 22.2114
7.18816 5.08685 19.7094
6.96064 6.4506 21.5094
7.06094 6.60174 24.8207
7.99468 8.06248 30.3364
7.74161 4.09138 28.509
6.10545 5.87313 16.316
6.79559 7.5867 35.642
6.80327 7.05337 13.0201
7.39575 5.01099 24.6855
8.00282 8.65239 43.5004
8.57689 7.03656 16.6109
7.67227 5.96651 28.1926
6.88172 6.64439 23.3043
8.117 6.08222 22.536
8.61464 6.47946 37.373
9.65843 5.28685 24.7455
7.53306 6.11565 26.2975
9.46376 6.08602 23.2269
7.63505 9.57355 32.9006
7.88118 8.79115 21.3055
7.7522 3.68213 19.4912
6.07611 6.06666 30.6077
7.40226 8.01336 23.7062
7.48435 4.44983 20.0867
8.18046 6.46458 29.7418
8.04584 6.09143 24.8205
8.37799 7.21971 28.6397
7.82247 7.34257 22.9262
6.34365 7.21069 25.7048
8.15115 7.5063 26.4548
8.22891 4.82411 31.912
7.60155 7.02907 26.0314
7.39713 5.87306 19.3607
7.78851 5.03032 24.1084
6.6993 5.40434 12.0167
6.34127 5.26506 33.5251
9.09775 5.89602 20.9944
6.94117 6.40763 20.6175
7.00957 4.84532 28.5231
7.67838 7.79449 24.6672
7.87776 4.53781 20.5554
6.30894 6.88713 18.055
7.629 5.48231 23.0875
6.72605 6.82718 25.423
6.72879 7.34341 23.1754
7.85359 9.24091 34.5243
8.74925 6.40352 35.0705
7.71838 7.70577 25.6727
6.30692 5.93905 21.2315
6.88935 8.38018 28.4172
8.10109 3.88422 17.275
7.63639 5.04611 27.3202
8.35314 3.90542 12.4197
8.38337 4.67808 17.5673
6.46476 6.54179 22.3962
6.13177 5.85128 23.1802
7.6691 4.29226 22.7599
7.22733 6.32111 19.9758
7.70775 4.40463 16.8881
6.75751 4.77215 24.9073
7.75644 7.39106 26.6602
7.47974 5.69288 26.3421
9.18279 6.69903 16.381
6.82265 5.23393 18.522
6.2381 4.99407 23.9939
7.56488 4.95946 22.062
6.08502 6.1346 28.0793
7.40601 5.26437 13.2357
7.63234 5.69369 18.3941
5.11861 5.5845 26.0685
8.21041 5.70796 23.9367
9.06031 5.72218 33.4707
9.42204 5.96495 14.9303
6.2833 6.08857 20.8155
6.70127 4.60666 14.8259
6.01792 5.44589 22.3937
7.54832 2.72739 16.9896
5.81819 5.96118 20.2987
5.98992 5.14638 28.2412
6.69378 5.04063 17.9486
6.79698 4.77483 23.7646
7.01791 5.81657 21.5579
7.43505 6.3079 27.6748
7.13216 6.8341 31.6201
8.14448 6.89479 27.9347
8.34489 7.15374 32.582
7.64454 8.23231 20.8574
7.88589 4.00585 19.2518
8.92731 5.54434 24.8234
7.71194 6.66733 20.3291
8.06561 7.28315 24.976
7.5511 5.38639 34.8322
5.81636 8.59024 19.7546
6.96621 5.90594 25.5405
7.89017 5.32509 26.4428
8.35037 4.32345 21.3312
7.66407 6.0242 18.0367
6.76624 4.40884 14.4429
7.32932 5.28887 25.9056
7.4171 8.05927 21.5283
8.42552 5.53967 23.6674
7.93916 4.72954 30.8783
8.12996 8.08353 24.0737
6.48367 6.06852 20.9202
8.67329 6.528 26.4802
7.2839 6.31179 22.5385
6.74592 4.31569 16.9028
6.23762 5.01836 24.2692
7.86309 6.27673 26.1887
8.56225 6.30072 24.7683
6.82347 8.89534 22.5101
7.13072 7.14804 34.3274
7.81117 5.21769 29.6265
9.07229 5.99556 21.4942
7.95325 8.97126 22.1806
6.55882 4.07738 25.594
7.25758 5.2986 18.9755
6.4868 4.99215 22.6793
8.0228 4.67283 23.5814
8.12898 5.97968 21.0691
6.85602 4.67645 16.8487
8.06516 6.14851 29.6268
6.91131 7.4133 33.8594
7.9044 6.92726 24.2262
6.23553 8.24872 53.5738
9.18225 9.02759 26.4669
9.04934 9.51146 33.2861
5.87746 7.01957 23.1539
6.08275 5.10592 13.2691
6.39116 4.15032 21.7708
5.76127 6.25091 15.042
7.50533 4.40867 19.8375
6.68897 4.87662 28.7749
6.87286 8.94456 32.2672
8.25689 5.94375 26.2576
8.79323 8.05066 31.6744
8.23919 6.74645 32.8233
8.80482 6.43465 20.6921
6.91386 7.12551 26.3494
7.10697 5.043 21.61
5.17156 4.84591 27.7453
7.47224 6.94818 18.4581
5.56043 0 0