# pn-170911/CsIIA-40-PTBB-1280-1959.psd
# Power spectrum* (dif=0,1,2) (really just |FT|^2)
# NOTE: only the first half! (symmetric)
# weeks: 1280-1959
# 6 clock-days, 2 excluded
# PSD: 1441
10612.4 2.4885 0.00396217
732879 17.3744 0.0100164
6.04331e+06 130.541 0.0128159
1.15406e+06 64.9644 0.00698931
847383 71.767 0.00783458
432919 22.867 0.012728
191231 37.3108 0.0128954
228906 25.9443 0.0195357
110356 17.0295 0.0190608
204570 100.797 0.0515394
123579 45.3657 0.0258075
118297 43.0959 0.0278924
97486.7 40.8986 0.0363674
34344.1 24.0849 0.0264754
59168.6 57.0776 0.0758025
56055.9 58.2871 0.0863585
23271.3 34.861 0.0486649
19346.5 18.9035 0.0238688
45730.4 57.8279 0.121414
29520.7 52.5348 0.106189
23893.6 62.5622 0.130923
21387.3 25.4658 0.0545659
13328.6 32.1907 0.0955878
39132.1 94.1405 0.309889
13245.1 26.0504 0.0877504
7842.12 35.2299 0.101167
5858.23 20.0032 0.0649073
26025.2 66.0711 0.219606
27889.4 86.5403 0.350498
10446.5 47.5776 0.185489
16322.7 50.8415 0.248222
21290.7 64.0721 0.260499
13759.1 42.7059 0.230319
8764.33 22.4184 0.139689
12348.2 55.1852 0.294632
14408.7 56.9304 0.328202
11259.7 57.7043 0.389463
6786.97 58.7107 0.421455
6173.05 47.6877 0.379601
17402.8 90.0218 0.64639
5662.25 42.5833 0.327536
7972.85 44.5209 0.331901
7745.75 59.4332 0.425513
7487.96 49.4092 0.39274
5051.81 38.0401 0.367236
6339.21 40.6883 0.39814
3392.65 40.721 0.4181
3369.49 35.9235 0.313576
4819.73 54.8532 0.580343
5711.75 64.3534 0.791843
2435.81 18.6358 0.246933
3274.23 27.4537 0.319256
4087.16 51.3579 0.721621
8075.45 68.1846 0.900962
1224.22 29.3271 0.443265
5441.99 51.5053 0.701728
4887.27 52.4513 0.840078
1865.1 34.3644 0.517949
1985.39 18.5371 0.320578
1098.76 18.08 0.285156
1536.38 42.0573 0.720953
2289.2 40.7417 0.722564
4739.06 78.0235 1.42761
2864.33 51.5686 0.932256
2451.81 38.5939 0.842134
2360.25 39.4689 0.731374
3179.14 50.342 0.979151
4557.93 75.1164 1.57237
1363.59 25.7868 0.595219
845.723 15.1538 0.349672
2004.9 36.439 0.821265
2685.23 51.5998 1.29809
1449.7 44.9003 1.1254
1370.16 16.7751 0.452898
2227.58 59.203 1.60147
2081.9 40.5124 1.15051
1336.82 48.7116 1.46961
1013.81 22.2291 0.693733
1677.07 36.9249 1.09443
717.102 14.5278 0.495678
1112.82 25.2433 0.735576
3089.77 60.8577 2.01211
2523.1 60.2443 1.92225
3282.34 80.1894 2.36209
2213.36 45.7144 1.65655
1146.51 35.6886 1.11541
1441.44 38.8006 1.41423
1472.44 53.4273 2.01652
856.987 18.4136 0.593197
1285.33 43.1837 1.80073
871.164 29.8156 1.07105
2030.92 49.7383 1.87725
1020.85 38.1586 1.59799
1414.4 54.3164 2.42029
1400.04 36.6608 1.45141
1151.38 42.9876 1.78021
2523.91 62.0497 2.6379
1455.95 47.268 2.24879
2104.19 81.8725 3.71847
838.365 26.1092 1.167
1033.65 40.9397 1.8473
1402.7 60.0513 3.04741
1021.36 35.4636 1.93032
620.307 41.0999 2.30557
1184.93 46.3183 2.37907
1167.21 43.2426 2.21418
895.941 48.0437 2.74606
1789.59 65.0201 3.3887
756.513 18.0383 0.902642
1076.98 56.0688 3.16559
1584.66 80.5815 4.66937
719.791 37.6977 2.02185
824.873 40.7414 2.67013
1134.07 64.2118 3.66773
746.595 31.9784 2.02962
807.551 34.3258 2.23283
1285.85 75.9818 4.81756
827.802 53.1313 3.00183
341.549 39.938 2.77205
1036.15 36.8746 2.44256
624.361 65.8453 4.43514
680.883 38.7504 2.68052
468.739 22.1079 1.53543
492.163 17.1062 1.0314
614.065 34.3813 2.73899
710.882 46.9988 3.36331
628.986 52.1227 3.83521
933.429 51.8262 3.84933
690.013 30.6272 2.481
510.582 32.6052 2.44309
503.146 34.581 2.9361
794.479 66.7704 5.03533
632.679 43.8099 3.70205
535.8 39.8931 3.4169
589.594 55.9243 5.11769
606.384 41.4766 3.95535
849.267 45.0417 3.63488
677.211 42.2736 3.89168
435.42 37.9511 3.7431
850.468 54.7792 4.78974
406.661 29.8296 2.68232
971.513 72.9732 6.9191
650.356 53.3677 5.46743
567.485 37.5358 3.21493
449.937 48.4138 4.84617
981.232 89.8552 9.09654
403.98 33.9264 3.25843
561.526 38.7802 3.72602
752.851 60.2218 5.85736
506.155 23.5312 2.56075
553.982 38.795 4.45736
344.296 30.7675 3.4871
154.455 21.0595 2.16663
460.615 31.5577 3.85629
308.87 22.7131 2.45572
276.731 36.1148 4.07966
399.305 48.8032 5.07051
496.526 66.2536 7.51127
416.372 62.1907 7.52055
303.911 31.5536 3.88897
351.864 54.2453 6.90248
659.97 56.9199 6.27087
523.375 65.9921 8.65779
204.654 18.3196 2.15868
498.692 40.2654 4.98448
291.989 29.7024 3.79556
391.796 47.0767 5.92509
126.402 18.5757 2.96575
741.225 76.2087 10.0434
498.701 75.6327 10.2993
243.447 36.0818 5.69064
632.508 46.1199 5.95833
470.254 47.8157 7.20276
481.549 43.0996 5.56305
274.264 37.8794 5.81646
218.42 20.1855 2.3749
426.615 56.9534 8.38897
371.128 38.5849 5.81551
254.277 26.506 3.84665
119.648 24.8981 4.13547
561.624 47.1556 6.97341
202.436 19.1838 2.73905
442.09 59.5946 9.39555
586.604 65.8636 10.8732
276.098 41.6927 6.3559
150.838 34.9316 5.77218
236.066 34.4442 5.16337
193.732 19.4641 3.25232
210.011 17.959 3.05982
693.436 80.4703 13.8924
358.125 47.7262 7.57915
277.156 31.8222 5.78333
154.44 29.807 4.81097
220.326 26.6967 4.91731
227.582 43.5309 7.30513
161.31 23.2749 4.8938
512.471 75.2459 13.8336
187.775 26.4166 4.26846
315.271 40.3949 7.75309
412.718 62.4585 11.483
295.822 41.7428 8.84072
149.847 24.8326 3.93911
146.667 21.8557 3.88626
65.1523 23.1557 4.79986
117.573 29.992 6.94121
289.53 28.1183 5.26556
177.971 32.1713 6.42776
186.738 41.9993 8.23445
228.774 23.671 4.61025
248.27 29.4392 5.88473
370.861 43.1945 8.47522
165.224 22.7696 5.27187
219.298 44.2679 9.07721
185.006 24.0174 4.66756
281.189 37.7955 7.84046
211.833 43.4773 10.9675
151.123 22.6266 4.38023
394.328 62.3311 12.1654
107.185 21.258 5.41573
284.751 41.7367 8.13384
183.011 42.8761 10.8383
243.543 32.7716 6.69797
231.945 57.5544 13.9596
316.637 44.7631 10.0182
66.5183 19.9217 5.70162
206.585 29.0475 6.21071
268.878 41.3326 9.50968
360.241 62.7048 14.4643
253.878 40.2173 9.83546
117.818 19.2279 4.63233
311.115 81.1494 20.1381
78.16 9.68087 3.03037
268.864 44.0143 12.3911
179.949 48.6584 12.0846
363.138 68.2939 19.0328
132.941 35.3775 9.9503
180.27 35.0421 7.55252
235.472 56.0325 14.3511
130.569 41.7414 10.8926
93.1478 32.9459 8.96237
126.613 40.2457 11.7859
245.648 59.4791 15.3722
137.386 28.295 7.64322
281.892 62.6389 17.7695
277.781 73.2582 21.7027
145.161 23.0066 6.14418
288.56 45.9067 10.6573
187.047 48.7103 14.7257
162.366 35.882 9.6749
217.449 36.4854 10.6368
325.377 82.9624 24.1156
153.166 35.0855 10.9659
123.717 35.9334 9.16599
107.208 42.2874 14.3201
351.694 66.4612 17.0277
179.804 46.3674 14.5975
94.3581 11.9477 3.42747
109.716 39.2893 10.7854
79.2331 23.6744 7.93453
104.128 20.4436 6.95473
145.936 42.7297 12.7962
135.934 29.6713 8.96272
208.896 29.5483 8.67968
129.298 42.3464 13.4707
64.5198 27.4341 8.63666
233.865 74.6894 23.3427
126.364 40.108 14.1225
239.306 40.7437 12.5637
155.06 30.4002 11.201
164.874 50.1182 15.9645
94.6826 26.0404 7.45108
84.9131 20.5533 7.25473
85.1107 29.3078 9.80025
237.55 66.2841 24.8917
73.0909 18.1773 6.52296
64.191 46.0672 17.2447
119.007 49.8702 18.8697
218.844 35.7308 10.321
84.9794 22.4564 7.91393
97.0284 42.6899 15.486
167.901 32.9705 13.2344
68.8604 19.136 7.50938
151.508 52.921 19.7717
198.512 59.0001 19.616
73.3057 18.1984 6.84364
85.4866 39.6369 17.85
134.088 31.3296 10.0067
140.939 60.7436 23.6268
153.152 31.6349 10.889
126.26 30.8145 10.8225
173.213 41.7445 18.5143
102.023 27.6435 9.1208
132.78 27.8211 9.49532
79.659 23.8332 9.11266
87.0271 26.8161 10.7826
90.2107 19.2098 7.23104
140.706 38.1516 15.3272
76.3158 29.4671 11.4247
73.1343 24.718 13.2001
113.369 28.6992 12.6798
166.164 35.3612 13.4588
100.353 33.0119 15.3643
84.0442 14.5528 5.05017
97.1527 24.4178 12.0467
163.017 41.5108 17.0376
72.267 28.1684 12.4713
79.7517 23.7673 11.7684
125.149 39.768 17.461
89.5582 25.4357 11.0945
51.9772 24.2503 11.7567
136.172 28.8994 12.7322
74.3702 33.1362 13.8386
44.9014 13.5859 4.98175
35.263 17.1653 9.70328
145.212 47.9676 19.8032
107.328 30.942 13.7069
88.4499 28.0131 11.9782
128.562 44.3271 23.5303
128.49 42.2453 17.3429
37.1327 7.95514 2.6428
24.6033 20.1887 11.6532
96.7478 26.6732 11.7347
114.652 28.1999 10.0902
86.0616 28.7301 14.6685
102.455 25.9917 10.5521
88.7972 27.4098 13.2243
69.7027 43.8029 21.3315
104.272 27.6763 15.9796
39.1674 18.7817 10.4186
139.027 50.99 20.6254
38.3071 17.4141 7.9913
33.0224 23.1419 9.2689
52.0767 50.1726 28.7215
124.408 33.5193 13.3767
88.0814 25.4505 13.1665
71.3481 27.1897 14.7848
114.823 41.0398 15.2666
75.2474 64.7869 34.3124
37.3284 18.8892 11.8112
160.392 55.8468 27.5556
85.4068 21.9967 8.67947
94.2198 68.8015 39.2588
58.2449 26.1949 13.6089
131.221 56.0535 31.8592
68.2046 19.5897 10.8905
30.3103 25.3157 15.7068
80.6217 24.8843 14.3071
80.0054 26.7144 16.2464
97.2081 43.7827 22.5393
68.2968 24.8632 15.1971
99.0119 36.6661 19.4455
52.7597 22.1586 12.0257
52.8539 22.8804 14.0015
42.6945 18.569 11.0257
73.7064 32.7638 15.9549
44.5841 28.6215 21.502
119.071 37.7766 20.4569
103.203 32.5482 19.8905
67.1976 31.4838 19.5974
47.778 33.0403 15.1171
66.9335 16.4957 9.92954
37.9981 16.3734 11.6246
93.9509 46.5578 25.8623
75.5113 39.1597 23.2705
112.331 42.1285 26.6941
68.0573 45.6157 26.2888
45.1187 8.54243 4.25997
80.8582 26.0799 17.3388
76.9039 23.3001 10.4027
100.437 41.9382 25.7556
53.3795 23.9122 16.4668
69.8701 22.7162 15.4803
71.9545 28.4904 17.576
46.9069 15.755 8.46695
45.7045 29.8623 17.7097
48.9716 27.7075 21.5514
52.3778 26.1205 19.8033
55.8044 23.1654 16.1144
106.245 45.8289 28.2194
98.4154 41.7078 22.668
29.9583 24.5915 13.1387
63.2628 30.5185 21.1087
73.0196 44.6711 23.8321
77.0833 29.954 19.6429
42.1736 23.0637 18.9733
58.2255 25.2228 18.4942
33.0412 20.0618 13.1493
75.28 23.8765 15.2181
97.0193 40.8473 27.5641
35.4224 20.4092 16.7231
38.7749 14.0403 11.248
51.3458 28.2361 16.815
66.8648 31.4217 18.4969
25.675 12.1791 8.71955
32.3057 16.9608 13.0212
42.4027 19.1032 16.4725
42.161 17.8196 13.4468
67.9533 16.263 10.1919
48.0537 20.0826 12.5519
62.4866 37.7701 24.4432
73.9595 25.1985 18.9221
51.8407 33.9427 23.1441
51.674 29.2046 22.8954
80.3952 26.3371 20.7423
44.4908 17.9215 9.60657
49.4204 22.3531 16.4328
11.8721 12.3367 12.2446
80.6716 33.4113 25.9899
42.6581 27.3158 20.5158
42.3316 20.4967 13.498
58.6017 35.4597 28.8357
56.54 36.086 24.8687
36.023 18.8892 15.2008
47.7282 21.1574 17.3093
45.2447 19.9879 14.571
77.7423 38.1102 27.9188
59.6202 38.5545 30.1582
56.7664 31.9183 24.5737
76.6608 40.8053 30.2287
30.5967 16.7662 14.3844
88.1034 44.4599 34.1404
76.8439 35.7252 29.3738
36.1935 25.2921 20.1767
44.8655 40.0525 33.2614
62.3044 23.4103 15.1168
61.1112 43.7212 34.2021
52.9744 21.3815 17.4028
23.4027 23.8207 20.5507
55.7828 21.4371 16.3835
30.2086 10.2943 8.25739
37.8752 15.7214 14.0061
75.1129 39.031 25.7382
22.5941 8.05362 6.13693
34.6865 22.043 20.7264
36.2217 17.5891 17.7907
75.9047 45.1227 33.2669
36.4025 25.0161 25.1354
52.7188 18.3835 14.4444
21.3755 15.7606 19.1632
45.3764 33.8505 30.4272
56.3772 41.7019 36.4576
24.0848 11.4381 6.48997
58.0413 34.5723 27.5566
31.6941 13.7919 12.6492
33.9773 24.714 22.3718
24.5385 15.6541 12.9571
30.4343 22.0041 17.9716
37.1926 31.5634 27.9112
34.5696 23.914 26.3421
20.1895 13.3861 10.2705
26.1754 13.3801 13.0833
40.2587 17.114 16.2692
23.9819 12.9167 13.5489
47.4006 19.6425 11.0753
29.5065 27.9334 27.4165
58.8318 25.7981 20.5218
27.2978 24.103 23.6051
18.3117 9.86872 8.17291
30.2399 16.9641 14.7952
25.9765 8.31758 12.888
30.9473 25.0837 17.3031
17.1084 12.5975 17.486
30.013 15.0437 13.9617
46.3021 32.0621 27.1598
34.352 17.9518 13.9081
34.6411 20.4621 25.2435
29.7161 21.3285 15.7347
28.6483 18.0261 18.4069
60.3236 32.4252 27.6961
25.6819 12.8419 12.3828
22.7304 15.9879 15.4331
23.7678 9.69679 9.6307
50.3064 32.5505 23.9958
19.5709 6.06116 6.01127
35.5236 33.525 38.1563
53.5469 34.862 30.7167
65.3333 50.3108 48.2412
17.7329 8.63153 8.4717
45.048 40.5404 42.3956
34.393 31.1602 30.2331
17.1158 11.4847 16.102
24.8354 14.9467 16.331
19.7713 20.5876 24.0611
41.5125 29.1123 28.6703
21.0409 19.0561 21.1681
43.1381 33.7258 36.0169
28.8846 19.1552 24.7809
30.4211 11.6632 12.0032
42.1838 30.1161 22.4922
52.3793 33.2589 33.916
13.7316 11.6312 18.4622
38.8594 30.1394 25.0423
23.9615 14.7206 17.1739
31.814 16.917 19.0637
27.046 13.1496 10.859
48.2874 19.6427 14.3907
39.4606 33.3299 42.9318
11.1294 11.058 14.4926
40.4694 29.781 30.9155
30.1753 22.0922 24.3188
26.4821 12.4931 12.692
21.5452 32.2652 34.4366
29.4751 12.4941 12.0389
61.5163 34.8981 36.9459
31.8145 24.7029 26.1654
12.3897 10.6552 9.38871
22.0455 17.4074 21.6263
43.3172 29.9803 35.558
25.351 22.5408 19.2341
14.9444 10.6645 15.2277
16.6077 17.8302 16.0471
26.664 26.7183 29.94
15.3807 17.8285 20.5688
18.409 11.608 16.9942
32.0944 16.3998 20.2081
41.6119 23.0294 21.4847
15.0036 12.7406 16.5984
36.3588 24.8914 30.0008
38.521 26.5812 29.6291
37.9754 16.589 20.7777
30.7351 14.6163 13.6632
56.8742 35.6346 35.7764
36.6822 32.7469 40.4218
48.0372 37.6318 38.4181
19.2042 19.5932 35.1513
24.7281 16.5731 15.514
27.8244 24.2199 25.3415
23.1469 11.6904 14.6023
14.7218 11.3821 20.1659
39.8002 29.0908 33.4278
26.0359 22.2521 27.6328
6.77113 11.9503 17.8748
34.2228 28.5671 37.9695
26.0923 15.6991 12.1204
28.7213 23.6376 31.358
21.1512 30.8662 35.7342
32.629 27.3306 38.3566
21.9909 16.3043 14.4939
17.9515 22.4129 27.7726
43.6057 32.1181 37.7407
14.1578 14.9788 24.0209
27.4796 26.2908 26.4096
37.2597 20.0538 22.1779
16.4748 11.0098 13.0211
15.9084 18.4265 22.1072
11.8544 17.9102 22.9173
24.5181 22.9548 32.2323
29.3545 12.521 17.9696
34.7936 18.3481 16.4977
23.2854 19.5374 30.2871
11.6659 12.2804 14.3571
21.063 12.7279 14.0226
15.5849 17.1284 35.1339
34.3868 22.6682 23.8919
28.231 30.196 30.0637
18.2297 15.307 24.1397
18.8644 12.9944 26.3726
24.7907 28.0079 35.2833
31.3662 23.6425 32.6933
34.6717 45.3116 49.9213
19.8322 10.1505 19.3936
14.8128 12.4152 21.3061
13.7802 10.2524 10.0618
11.1708 14.1502 18.2319
34.4138 30.1184 35.9264
27.6912 18.7589 26.5227
12.891 9.38953 16.3488
12.5866 14.3771 23.9808
17.1365 17.9988 21.6446
25.0535 10.6446 10.781
21.0792 21.5936 30.2013
14.4971 35.7262 46.1412
17.8034 14.868 17.3392
13.0544 8.91181 14.7237
9.90724 8.32611 17.4217
23.3493 27.9088 31.7749
9.1053 12.3574 16.4686
22.5614 14.6419 18.3288
13.218 13.7999 25.0041
12.3493 8.5639 8.8226
18.7579 21.4462 30.1783
6.0133 17.727 38.5917
30.6093 14.9085 15.1244
10.648 15.0676 25.2476
29.7758 18.8754 32.2941
18.4663 7.68331 12.8473
28.9824 19.4691 20.9482
22.5705 15.5784 14.9496
33.6154 25.7833 31.5395
16.0412 19.9013 36.9856
32.134 24.9856 29.4754
12.6979 16.7152 18.4679
19.2833 14.1256 15.0223
15.2644 20.2186 30.0538
32.4208 25.7219 38.3931
16.6479 22.2962 34.5627
13.1544 16.8404 40.1809
25.314 19.8939 30.5912
34.6757 25.2657 23.0133
13.8247 14.1866 30.9471
22.8689 25.0194 34.5165
10.7955 14.6098 37.3733
45.0403 24.79 17.317
13.2224 14.2782 22.5592
16.1821 12.3915 14.6326
10.5225 10.2534 23.2387
23.0769 14.4127 22.4019
18.0022 17.3657 28.2186
14.9018 16.8055 17.688
11.7665 11.3765 14.4838
9.45461 10.8015 15.4569
5.70274 14.7881 28.665
15.8739 13.0552 13.1568
13.762 17.4568 24.6903
8.88244 11.1522 27.1318
17.2737 14.8647 19.141
11.1023 18.7839 32.3876
17.6506 14.4461 22.789
9.44476 14.1948 23.2851
24.4989 19.5838 31.9269
20.0598 10.7561 8.08709
11.5932 22.045 33.2501
19.479 8.53011 21.1149
26.6214 29.5498 36.5584
20.0385 15.1781 18.9811
9.40577 10.4186 23.8329
16.9861 13.1201 19.3341
17.2696 10.3907 19.8845
22.8544 19.299 28.7536
17.2161 25.5506 36.931
10.6612 15.9854 25.9631
14.7958 12.3038 21.2672
10.8623 8.45138 18.8039
18.3216 12.735 21.2818
20.813 15.3716 20.0534
13.8055 9.77918 20.458
23.2301 18.1033 26.5971
17.6261 9.28205 15.0501
22.286 13.3706 17.8056
29.4405 21.3516 36.0985
22.6538 26.346 40.4778
11.8973 19.81 38.795
22.7463 17.73 35.2179
35.9499 31.8526 43.1282
16.7299 15.2806 30.5337
5.4302 12.7266 19.0508
11.0573 10.8967 17.8311
6.13456 6.64736 15.9824
19.1844 10.781 11.8966
8.74967 24.224 45.1442
12.4773 12.3782 29.0266
15.435 14.3759 25.904
22.3213 17.19 27.0113
16.1773 10.4303 12.6694
13.3687 6.40266 12.4014
23.5946 22.9103 36.5121
10.2565 11.6447 17.1542
23.0786 21.5333 26.4749
8.22697 10.7691 26.9185
11.2426 7.42852 14.7688
11.8519 12.2804 15.1156
16.0537 19.573 36.3209
24.2567 28.0588 51.4405
15.2625 15.7568 27.6668
6.86304 9.70081 17.8403
9.74647 6.86154 7.557
8.39631 7.50516 21.1678
16.0621 17.197 29.7394
8.87759 6.78517 10.1238
10.0922 11.4553 29.877
14.2664 12.0621 13.0575
7.92915 6.91242 13.9463
7.32266 15.2712 21.976
6.74351 10.2082 22.1697
10.2525 8.77256 20.4653
17.6364 20.8914 36.1076
23.8959 14.1826 19.6051
12.4977 12.1706 19.9732
10.4128 18.1038 45.6505
17.6921 27.3808 48.5325
18.1673 17.9399 28.5064
18.5667 22.7091 51.466
17.6895 11.2403 19.3874
20.0886 16.0146 36.6902
23.5964 23.4852 30.3937
8.47116 9.76049 18.2782
16.2489 15.32 25.3084
6.23649 9.12094 20.2823
14.5389 8.6679 15.9447
13.3232 15.0201 26.307
15.5672 17.0605 33.3032
8.09885 9.37503 20.2328
11.1269 14.6063 29.1107
13.9379 10.1307 18.6736
13.5382 12.2225 20.0901
17.0028 17.265 24.7128
6.41671 5.46841 10.363
17.5815 25.487 57.0898
15.5689 18.2471 29.5197
17.1527 19.4209 39.8829
24.6531 22.5493 34.0114
7.52625 8.99958 21.1542
15.3207 15.567 40.742
8.46551 7.82997 14.0909
7.70296 10.3144 19.7561
11.6882 23.0653 42.8968
6.2529 10.1237 19.4483
12.1155 7.72478 17.0131
13.4947 16.5534 42.9778
15.9947 22.4549 34.4995
15.001 13.06 28.6615
5.8779 5.58676 16.562
12.4537 13.5905 16.7239
7.62127 13.9007 23.8979
9.95976 4.35855 12.781
6.66418 14.9933 24.5535
16.0939 24.1953 57.2303
17.3447 21.96 35.6898
21.0626 22.6736 51.1618
18.4748 14.8363 29.4478
13.1108 7.8405 9.42622
16.5371 16.4992 17.3342
12.1545 17.7512 36.5563
7.39807 16.5634 33.4911
6.13028 8.02234 30.3918
9.68597 15.3399 27.2424
14.3831 15.8488 28.2061
11.5271 8.93421 21.139
12.5418 19.0504 41.3557
5.14164 8.84254 20.0362
10.6875 9.23911 24.8367
11.4513 15.8186 23.4709
10.6304 9.61561 28.7757
11.813 34.1924 50.0601
8.00071 4.99281 14.5954
11.4879 11.1167 25.611
7.1248 7.42351 21.7767
12.8519 12.6339 24.3993
10.4667 8.67487 13.5726
9.10322 7.32833 28.2032
13.6337 19.5567 34.5307
11.6332 18.4377 32.4826
8.38669 8.35538 19.0829
9.72958 8.82844 16.3785
11.3857 21.0173 47.0797
11.2528 11.1626 28.031
12.2451 11.0199 17.3247
9.3744 12.109 28.5762
16.4013 15.5077 24.7712
11.2068 12.903 30.9125
8.73926 16.6378 25.2569
10.7628 17.6881 39.1525
8.53145 8.16324 21.134
12.4369 4.53719 11.5708
14.2449 10.062 28.4521
10.2509 14.8636 33.9928
9.40603 6.08829 10.573
7.29205 10.9326 19.2615
9.83969 15.1806 35.0281
16.5684 16.544 31.903
8.36626 12.9854 24.3844
9.54363 18.2281 56.0633
17.6172 11.379 23.4986
13.0705 13.638 28.3016
12.3825 13.7696 31.2336
15.0992 17.7177 36.6584
13.4462 23.3353 53.2427
15.259 16.9477 41.73
9.95135 12.3328 23.9931
9.68872 4.60924 16.9307
8.56253 9.19909 14.6812
11.7092 8.83126 23.8809
15.2704 10.4526 17.9905
7.33922 5.98886 10.5775
3.95242 9.30413 28.5767
15.3562 18.2302 35.73
6.54158 6.40179 19.024
17.1391 19.575 41.021
3.77621 8.69524 31.9763
13.6909 13.1299 22.5064
6.1632 10.462 27.078
9.74992 20.4741 52.8737
10.8878 16.0477 38.5268
11.9724 13.0281 32.6484
18.4461 9.72041 9.8804
12.3867 19.0149 32.8216
6.58657 8.76455 22.6773
4.53229 3.97636 20.4788
6.32368 5.38874 21.517
9.3498 14.8087 26.3446
9.96022 11.5906 14.5881
4.29272 7.85608 24.4376
10.7687 7.6051 15.3503
9.33845 15.4491 29.077
7.04927 6.5053 18.0707
9.73915 11.6176 21.2846
12.8915 10.6712 19.1688
6.08648 11.8348 21.4158
9.73907 9.95389 35.8587
6.99184 5.26407 10.9203
10.9262 7.11773 23.8936
10.9502 19.4981 36.6432
8.3606 7.8061 12.1639
8.36265 13.6493 39.1877
8.36371 10.5782 39.6571
15.0019 12.7652 22.2937
17.8636 15.1736 26.7187
6.46722 11.1944 27.8
11.1189 21.7781 53.9134
11.6258 9.98547 28.3385
6.19545 7.06347 5.03537
5.77192 9.92589 17.4048
6.67374 7.62652 17.3479
8.93364 12.404 51.8975
17.2772 12.2535 20.8548
10.1029 9.2754 21.4496
6.7345 5.85543 15.8408
7.74026 7.34943 23.7172
8.36657 10.5751 20.3649
5.28706 4.97095 8.35512
4.07143 9.00769 27.1562
7.33277 5.92582 10.7669
8.02716 7.94498 14.0143
3.50445 9.59757 31.4008
11.9581 16.5468 41.4766
7.2279 16.9608 30.7182
8.85748 3.8142 11.5927
7.82208 10.7305 23.4421
7.18416 5.13645 11.491
5.86179 7.41606 23.3108
9.60388 6.33758 9.48024
8.72462 10.1107 26.8895
3.85035 4.72213 27.284
10.9257 9.54568 22.4518
5.70908 10.2806 11.9778
6.95422 13.6294 34.0168
8.90375 7.62734 13.1289
7.41787 7.22954 16.653
5.83391 13.0674 34.7642
6.25421 8.25478 28.4296
12.0265 10.4004 12.6603
6.58774 6.66332 27.6767
8.19091 6.79478 20.929
11.891 9.27268 10.5354
4.72997 5.59055 20.077
8.46508 2.7953 6.61218
6.93821 6.87941 20.3546
10.7551 15.6148 39.5062
3.36196 6.4609 20.6318
7.70332 8.47553 28.0294
5.32334 11.4738 20.5458
4.89844 5.96879 21.3001
6.85467 11.0655 16.0244
8.72738 11.0513 33.8082
5.37946 13.3923 21.8183
4.24965 4.913 15.6682
8.20643 5.81849 19.3002
11.4481 7.65859 22.7994
12.825 23.5542 62.5686
11.1999 14.0102 33.0276
8.10649 10.25 23.4886
5.96357 9.10991 21.7581
8.41156 7.18984 22.0604
6.74144 7.34772 12.0372
13.3123 17.4439 38.8446
7.03548 15.9758 55.8812
8.50681 10.7576 20.4411
8.14828 6.31876 19.8224
7.47219 6.79631 14.8365
6.09398 9.78049 31.1546
8.54198 3.94699 12.3905
8.47706 7.45719 13.7551
7.46692 7.03033 17.8316
5.32201 6.69444 19.3332
4.85781 13.5418 48.1128
7.73903 11.8766 38.154
9.69529 9.76882 18.8841
9.35516 4.59975 9.66947
5.42226 4.21637 28.6379
9.40828 14.0202 33.5672
9.29866 6.77175 26.4209
6.35418 6.11621 11.6178
5.48902 11.9666 21.5164
3.95715 7.75684 23.756
7.91893 6.29332 17.8724
5.97307 1.27342 8.90929
5.50416 7.69619 17.9611
7.45157 6.53722 22.4577
8.83034 7.92877 33.6984
14.0179 16.6068 33.4582
3.3964 2.81245 14.2557
8.24807 10.7595 32.5121
4.38488 3.11492 7.31516
4.03764 11.3789 30.2239
8.4413 9.96161 21.7141
5.72052 3.92021 18.5645
6.35519 8.01954 13.788
3.54924 7.73219 17.0718
2.60359 1.88678 9.64719
3.58764 9.60874 29.3442
9.57271 12.6009 25.9162
5.2845 6.51368 19.044
4.09233 7.09629 17.3405
6.81056 6.1529 14.9456
6.36122 11.4588 32.2905
4.66649 7.32154 35.6198
6.90808 7.01847 15.0098
6.08943 6.46726 22.7317
7.06505 12.025 27.6182
4.77126 6.69259 26.9946
7.00136 11.4816 20.5022
6.66422 11.0718 28.6248
7.76584 5.83296 14.1338
3.40737 4.69683 13.6845
3.59448 5.22212 15.1216
4.92508 7.75667 17.934
6.4807 2.34457 7.00519
5.98273 10.2557 26.7223
5.65294 9.12823 23.9864
5.56389 5.3434 29.1996
11.0085 12.0883 22.9064
2.82618 13.1605 50.4228
12.3511 14.1736 29.537
7.5124 10.3479 33.9779
8.95782 12.3432 35.5673
8.60396 6.09103 22.5833
10.082 6.48961 7.89573
6.64124 9.95752 31.0528
6.11621 5.26522 12.4646
3.0791 6.30545 15.6617
4.02517 2.21933 10.2793
5.78264 6.50964 27.4054
7.43351 6.34685 20.1991
7.27658 9.16153 33.7362
6.62454 10.4962 18.4986
4.70163 9.92948 38.2331
10.1268 9.29386 17.306
3.5266 6.78171 19.617
5.95604 11.8688 37.8092
9.06679 11.2252 31.919
10.2885 7.41828 21.7651
9.40658 8.65375 33.8945
8.80574 7.31411 14.4189
4.22969 6.8625 32.6724
7.60653 7.80446 17.9875
5.9811 11.2742 22.8175
5.22972 2.10204 10.227
7.99448 7.23389 18.5982
4.85976 8.8291 19.8564
5.23272 4.45906 19.3115
3.61034 9.01157 21.4122
6.38559 6.31723 41.437
8.64143 16.1241 23.1982
4.95996 11.1308 33.5321
8.98807 13.7868 43.0894
4.37249 12.4552 38.0978
7.2719 11.7814 49.4467
6.23501 7.37255 9.2133
5.70482 5.81733 40.1078
8.30214 11.5157 33.8572
6.44707 6.50285 20.3128
6.38046 10.3838 28.011
6.39343 10.7824 20.9005
7.33633 8.26583 20.867
5.10616 9.07496 30.6704
9.3344 13.7051 41.8021
9.67838 10.3593 44.4581
8.2966 14.0523 42.9154
9.96785 16.9493 25.8696
1.68785 8.5214 33.4818
8.60554 10.9517 36.6785
8.94717 4.11101 13.3615
7.7845 4.67385 14.1728
5.09195 16.84 35.3157
6.26706 3.29756 18.7075
5.62497 4.87345 7.51793
3.71735 10.2999 23.8856
5.63307 6.97596 25.5467
6.29648 15.2006 51.1708
8.79253 6.78645 42.6757
10.9642 11.1435 24.9426
8.39025 10.5906 28.2412
6.27801 15.7086 59.1035
11.3121 7.65722 19.6187
9.87032 9.00879 22.0007
4.31105 7.5533 32.6816
10.0946 10.1903 12.8844
5.22448 4.26205 13.916
2.76728 6.52939 25.8575
8.8937 6.45813 14.8293
5.16446 7.84333 26.3923
7.30875 9.12169 26.4606
7.856 5.26233 16.252
6.52653 5.67148 20.6745
5.08034 6.90251 17.2078
6.77127 14.1163 32.1563
3.12092 4.80389 22.0935
4.46878 5.30146 14.198
4.64246 6.85148 25.2691
4.73056 5.09723 10.9899
2.47863 3.81136 17.3248
6.81245 7.49496 15.401
5.07645 5.44038 19.0037
6.424 7.17364 13.3075
4.82192 8.14732 26.9555
5.90716 8.26539 33.6733
2.92089 6.26844 16.0655
8.40679 8.10841 26.5003
5.25729 6.45734 19.1365
3.04579 4.69324 19.1745
5.97473 4.54229 19.9648
6.5242 6.25726 14.6869
6.29938 4.99677 17.5649
4.81147 5.88276 21.1204
5.44505 4.06936 22.0675
2.98758 5.82059 10.7035
2.98535 3.49866 21.488
3.23866 5.03764 22.0463
5.9462 6.48526 18.645
5.26661 2.80126 5.03165
3.25234 2.23797 4.52266
4.33651 4.49443 29.0218
4.25877 11.6451 28.8861
6.20598 5.89535 16.9432
6.19101 11.6399 28.8217
4.24686 4.87148 17.0242
4.42857 4.41453 22.6148
7.57924 8.37955 34.9502
9.17731 8.67002 19.121
6.28656 6.82779 26.5319
10.419 15.3084 32.1585
5.13236 6.30199 30.336
3.81065 5.13359 22.8353
5.3209 6.5612 13.2407
6.29697 3.99795 13.9343
5.44064 6.8389 13.3184
4.52687 6.12291 27.8594
8.42142 6.61729 7.45021
3.92683 7.29186 22.9857
6.80903 8.03903 37.4696
4.74672 9.79894 39.7088
5.82253 16.3614 37.9298
5.98237 5.51126 20.4295
5.09243 6.08659 29.1278
7.62245 5.41219 9.14962
5.51971 6.39909 23.2028
6.22177 6.6221 25.2273
5.5477 4.29651 11.6951
5.24909 8.73261 25.7465
4.71474 6.34447 21.1724
1.96329 6.76303 22.9644
5.25649 3.67119 20.4245
6.29429 4.98567 26.8448
6.06343 7.73156 12.1889
4.17582 4.26397 13.9359
4.81598 7.30065 26.8535
3.16442 5.78042 21.1729
4.13 4.75194 15.3126
4.91043 5.50874 15.1367
5.90699 5.68409 20.6559
6.31832 5.18605 18.8232
5.92039 7.86519 22.1491
3.91404 1.8368 11.055
4.84508 3.4013 16.3079
4.41665 4.88714 13.0918
5.11692 3.39381 15.058
4.54721 5.59871 21.8176
5.88232 7.08639 32.7575
9.11441 9.61118 18.4683
6.30853 6.61282 17.3596
3.51578 2.94514 22.7369
6.60952 6.43986 14.587
5.6783 8.51443 22.5163
4.52422 3.82946 12.8902
5.63628 4.18837 13.3274
5.63512 3.37001 6.44362
5.94899 9.12671 26.6366
4.2699 5.0685 22.9333
3.98539 8.12818 27.1743
4.59483 3.18446 13.0264
3.53613 3.32238 16.771
5.31293 4.31236 7.50904
3.61692 4.06738 27.3048
3.54216 6.33709 18.7381
3.17407 6.84373 21.6271
3.29016 2.21366 20.1432
2.23225 4.4774 16.5021
3.65836 9.30916 36.3491
5.37712 6.13289 24.0507
6.8435 7.75072 24.9092
1.3094 6.60658 22.1393
3.65244 5.47855 17.1079
5.2909 6.49171 21.1368
4.48988 9.75139 38.4978
7.93619 8.24965 24.2796
2.40674 2.86534 15.4354
5.39127 5.84875 21.7115
3.8006 4.73548 12.176
4.32973 3.98624 16.2006
2.36335 3.03763 10.3955
4.18093 7.325 26.5315
6.12329 6.57997 13.5921
4.71532 6.22107 33.5734
2.18193 5.67408 10.1356
2.56265 3.9744 13.9851
2.39513 3.11753 15.8384
4.07071 4.63807 8.83823
4.08178 2.46275 5.34984
3.42554 3.43228 11.9075
2.20464 6.08805 20.7828
6.10105 6.20391 37.1156
5.12916 10.9596 34.7968
5.2339 5.63149 21.9522
4.69703 6.456 16.5435
3.13839 2.73451 15.5431
5.66881 4.47279 18.7836
3.81569 4.72015 17.275
5.57722 9.39401 17.4493
5.00335 7.91355 36.2463
5.03751 4.04356 10.0896
3.29097 1.36018 12.7243
4.89317 6.10044 20.9415
5.62187 9.49512 26.4374
5.46649 6.67373 16.4924
5.6263 6.05395 18.2205
2.56172 5.85759 21.6977
1.61036 3.96568 21.7834
4.18779 3.32804 14.2801
3.20112 6.41735 21.9305
6.68698 6.11886 20.3158
3.26671 5.17352 12.2266
4.22298 5.63216 15.4044
5.96333 6.17199 30.8684
2.50621 4.66132 9.44361
3.47194 3.7395 15.8854
3.28186 5.46143 25.09
4.01122 9.94455 13.3365
3.83934 4.40361 34.2813
4.57946 9.09762 15.6513
4.367 3.89567 17.051
3.69921 4.13837 15.5284
6.04106 3.23071 15.5848
3.8991 4.7448 14.0908
3.68329 4.88943 21.7043
2.73538 9.10482 27.1297
6.09368 4.79321 18.1562
5.46623 2.412 12.1609
5.7076 4.60926 30.3585
8.35293 6.30516 12.8265
6.1536 8.53581 20.8099
3.85691 7.14866 26.4054
2.98469 3.31908 9.62536
2.63556 3.38883 19.8901
4.19733 2.93777 13.5554
4.08978 8.50733 31.4607
4.75199 2.14823 19.5586
6.49915 7.179 20.1191
4.63751 6.98104 19.1766
6.81368 7.01041 17.2457
2.3666 2.36632 17.6628
2.70662 5.58113 17.3675
4.39102 8.32463 14.8137
5.07377 3.87068 13.6548
3.96868 5.04747 29.2837
6.38453 4.80559 13.368
3.79145 3.95221 12.1128
5.57181 5.8611 27.8087
3.54533 5.49659 13.4309
2.9369 3.92973 19.4291
3.46718 2.3228 23.7779
4.21373 8.3116 16.4416
4.30791 3.63163 21.8887
0.909708 5.35596 18.0258
5.91329 3.80709 9.36424
2.141 3.85618 15.9427
3.26261 3.48622 12.7887
3.00366 6.55832 45.2244
4.51189 9.6165 39.3504
5.90127 12.0197 24.5482
4.39954 5.57055 16.3316
5.05659 6.45969 23.7484
3.61291 10.0611 30.8381
6.34147 6.6813 30.6158
6.26069 4.80575 8.03783
3.56955 3.98989 23.443
5.50397 6.6494 25.3165
6.12937 5.85551 19.2015
3.07018 5.57565 22.3269
2.69971 6.40284 38.2571
7.10333 6.42398 20.4122
4.80924 7.38489 17.3742
3.62496 1.82987 4.51402
2.42434 4.43293 22.1391
6.07597 5.57706 21.3048
3.08491 4.48642 10.5271
3.46214 5.87585 19.743
6.35299 3.30726 8.06921
4.53261 3.67028 22.9175
3.30364 3.85746 20.166
3.85594 3.4861 13.0604
4.89245 5.1641 25.9001
5.99507 5.93921 17.6344
5.98198 4.71758 17.6714
4.71434 5.57598 20.2703
5.42454 6.63645 22.0282
2.90363 1.91467 8.50506
4.47869 4.8143 9.78391
4.77605 3.99293 19.7472
3.27312 4.22382 14.2053
6.00652 6.84726 34.9087
4.13414 5.7431 11.4435
2.58145 6.35987 36.4938
6.12773 8.78797 16.3415
1.93268 2.18006 22.584
5.48877 4.36851 14.504
5.16362 7.15356 16.9319
4.77214 5.66259 16.6753
1.29784 2.75147 15.8036
2.99558 9.07443 24.9807
4.12394 3.59764 20.9631
5.26282 4.75855 12.9248
3.99798 2.81648 15.9473
5.93114 2.52302 18.5698
5.51765 5.12531 16.2035
2.26455 2.55392 4.63142
2.5417 3.16938 18.4921
4.08168 5.98753 17.8952
3.38432 1.66079 21.6486
4.21519 4.48992 8.87171
2.72479 4.2384 20.3408
4.76587 5.71465 11.0244
4.09585 1.68958 6.04322
3.54627 2.84553 22.2383
7.15189 5.67077 8.009
3.85489 5.75457 24.2437
5.33155 6.79214 23.2348
3.81878 3.30704 19.1077
4.04772 5.72326 22.524
3.54644 5.53872 18.7628
4.79616 4.8925 16.7202
2.56101 3.11482 22.6653
4.64856 8.12032 21.5068
4.30272 5.78594 23.0976
3.30069 5.52581 26.2801
4.86492 5.14161 12.0692
3.63377 4.86121 10.2781
1.981 3.66341 19.7208
4.3256 4.60089 24.7178
3.07296 3.02089 8.46643
2.74131 7.18804 17.9321
3.7525 4.2008 18.6965
2.39264 6.03895 12.4288
3.8586 2.4417 20.0089
2.72545 2.23999 15.0997
5.10261 1.7168 10.983
2.53458 2.53128 9.8548
2.54139 3.41355 24.5079
7.32447 6.01527 14.9332
3.04896 2.78369 24.6925
4.74089 4.93812 12.5384
3.10706 5.41908 19.5831
5.16197 5.40454 5.71991
3.19888 3.83627 27.9963
4.08252 6.51632 23.4754
6.16045 3.31946 15.4547
3.97983 5.14789 12.5556
3.39421 3.14102 10.5859
4.03327 3.4228 18.1531
6.04705 6.47612 23.0994
2.2248 3.53835 21.7591
3.53256 5.70953 10.8082
5.01282 2.60024 6.50697
2.99553 2.00897 7.81819
2.84436 2.60362 16.4339
3.49269 5.0833 21.3637
4.8459 6.96174 24.0726
3.79383 3.67033 8.71814
3.1474 4.13215 32.1728
4.4721 5.93884 19.4083
4.58259 6.70108 14.1153
2.82146 4.0114 20.3604
3.93939 4.47787 13.8475
3.18911 2.1556 12.9232
2.83815 3.04622 18.5001
2.58379 6.54736 24.4773
4.29669 6.52144 26.9792
3.43284 7.75378 32.8054
7.62002 5.84841 12.5829
3.52645 6.54845 23.1758
4.12465 5.01093 8.60203
3.12931 3.7171 23.157
2.74008 4.34174 9.9612
1.80663 3.63983 17.2768
3.93912 6.24781 28.4424
7.07538 3.43449 10.5425
4.73555 4.778 17.6278
4.05203 1.8566 20.277
4.94384 6.73194 10.9722
2.32029 1.92005 5.77732
2.61989 4.08328 12.8051
2.65788 3.74759 26.549
3.55309 4.48228 39.6882
6.67128 11.1052 24.0587
2.68964 4.28429 19.8666
4.87011 3.64131 25.2375
3.511 8.9836 18.2529
4.60609 4.65706 10.9806
3.544 4.53458 10.9363
4.67979 3.53322 17.5827
3.52181 4.40863 21.4613
3.25777 5.13029 18.7323
3.86655 3.26457 25.9355
3.41863 9.78175 34.6584
3.2102 4.85395 17.8754
3.1356 9.98981 19.0757
2.65822 6.81944 44.1451
5.70955 6.54356 26.2853
5.88737 6.48751 15.1823
2.99968 2.90484 11.1395
3.24134 3.35379 9.52903
2.49187 4.9284 35.5242
2.82353 4.28954 11.8792
3.13489 6.30948 21.0012
5.38368 5.93371 20.8666
4.08822 6.09134 27.3845
3.98803 3.10356 10.6097
3.07182 2.40866 6.04682
3.63077 1.7967 13.1834
3.19827 4.31287 14.5432
1.20887 5.16659 28.1292
5.37515 7.95139 17.0089
3.44819 3.42671 13.5721
3.54458 1.61838 6.49569
4.09249 5.1319 21.102
2.37129 4.51815 18.8318
3.83637 3.1758 15.4873
4.16273 2.02223 23.1097
2.83866 5.0513 17.0246
2.67676 4.53349 13.726
3.65307 3.50656 15.0718
2.74702 6.02112 19.7392
4.89698 2.82098 14.4386
3.72779 2.11048 9.82349
2.19777 5.97364 20.7581
4.73013 4.88277 26.3186
3.54754 6.75377 29.5571
4.61271 4.40307 4.90437
3.54606 4.40126 24.8798
4.9578 4.30105 20.305
5.75905 5.00312 13.9336
3.503 5.17073 18.9805
3.36483 3.26901 6.16724
3.26459 1.24311 14.1817
4.46543 5.07354 24.9877
5.06697 5.55388 18.8093
4.69331 7.01043 28.826
2.90613 5.68078 21.257
5.5552 7.76748 37.4103
4.86567 8.04916 17.2067
4.00219 3.94954 15.6228
4.9225 3.5407 23.1449
6.28728 11.1549 18.5917
2.5564 3.42835 25.5717
5.04644 2.83591 17.4832
3.49615 3.19682 20.5174
4.70336 6.3687 17.9278
4.05868 6.36278 38.6792
4.87768 7.04176 15.6308
3.89201 2.98685 10.1855
2.39943 3.03 19.2293
2.4966 5.45429 20.9683
4.54319 5.10644 20.6643
4.51606 6.94242 27.9184
2.95501 3.37897 9.46706
2.2134 2.33162 12.0797
1.97498 3.27877 5.65753
1.75947 3.1682 23.3972
2.36875 4.948 30.0891
3.66974 5.8677 6.11009
2.6141 2.48225 9.98093
3.3591 4.54487 16.6945
5.40226 4.89544 23.1136
3.84547 3.66055 20.372
4.18787 5.96451 20.373
2.74121 3.59635 7.07425
3.44429 3.36308 19.8605
2.33254 6.52955 18.8893
3.38195 1.55807 11.6244
3.67834 4.15859 17.501
2.78078 3.55665 12.6477
2.16875 3.49565 12.1852
2.66128 5.9874 25.8716
3.93248 5.18936 16.8671
4.89419 3.746 19.0695
4.5933 3.30742 10.2888
3.70358 3.90767 16.4337
2.73571 3.72341 20.3005
3.10554 5.92715 12.3494
3.6439 1.7924 6.95354
2.99033 4.26538 28.1634
4.4097 3.27224 8.26445
3.81183 3.84311 16.6434
2.49546 3.31728 14.1113
3.33425 5.76341 13.9695
4.14145 2.1043 15.608
4.65081 5.08076 14.9708
3.8036 7.92732 23.1086
3.26703 3.09178 18.5583
3.70393 6.23858 19.0926
5.66013 5.06675 10.6077
2.10724 5.98633 36.1517
7.90794 3.98993 18.0329
3.69186 5.65847 18.8671
4.20723 3.28257 12.7513
4.58845 2.73244 11.8725
3.09098 2.25647 9.89966
4.33373 5.12293 32.7661
4.03764 5.14643 12.624
2.61819 4.19059 19.5772
4.93606 5.35989 16.1919
3.62489 3.16041 12.2436
4.05975 5.66122 30.0012
6.2673 4.32488 17.233
4.10316 4.2989 7.986
3.78517 2.07555 8.45397
3.25246 2.53637 8.59566
2.31109 1.72341 13.3252
4.56691 5.63665 16.5218
3.60121 4.74192 33.5196
4.46878 7.28093 27.3539
1.60609 3.26741 22.602
3.81464 7.80303 22.3581
4.57313 7.2538 22.4377
3.79281 7.55122 31.7411
6.70523 1.85984 8.88388
4.46743 6.41553 41.5629
4.01821 4.16116 12.8968
3.52254 4.15217 31.7863
3.09319 9.17416 16.8646
4.21004 5.99531 18.4645
6.94579 0 0