# pn-170911/CsII-av-Hmas-1280-1959.psd
# Power spectrum* (dif=0,1,2) (really just |FT|^2)
# NOTE: only the first half! (symmetric)
# weeks: 1280-1959
# 538 clock-days, 231 excluded
# PSD: 1441
76724.3 3.53021 0.0292525
2.58801e+06 41.7078 0.0156798
1.51537e+07 301.663 0.0207706
2.37189e+06 95.3939 0.0194362
1.76308e+06 119.798 0.0243939
846835 88.1111 0.0243703
574482 84.8894 0.0304801
479921 94.7473 0.0364991
330550 87.8577 0.0399649
244989 81.0935 0.0481943
213013 84.7045 0.053811
186459 89.4518 0.0664627
142434 84.9395 0.0736002
125238 86.8354 0.0803532
115361 86.2722 0.096162
95659.6 87.0977 0.109501
86632.3 91.7141 0.125709
77880.2 90.0446 0.139965
71683.3 93.2055 0.157821
56083.2 80.2381 0.151792
53046.7 83.5598 0.172752
46366.8 84.54 0.197707
43441 81.8602 0.203094
39613.9 81.392 0.222072
36373.3 86.1859 0.251436
33868.6 83.9275 0.269025
33378.6 89.2461 0.302465
29497 83.4038 0.300451
28553.1 90.697 0.347183
25485.8 85.229 0.35202
24007.8 85.7113 0.380894
23669.3 90.7683 0.429757
21345.4 87.1166 0.437497
20236.4 90.2914 0.47347
17424.9 79.9109 0.458634
16622.1 82.7997 0.500213
16516.5 86.9281 0.548167
15674 84.422 0.553132
14161.7 79.327 0.559209
14947.7 87.6456 0.650527
14417.5 86.3097 0.664313
13088.6 86.7307 0.713581
11837.2 81.086 0.701426
11657.9 85.9537 0.761109
10953.6 84.9338 0.783397
11247.6 89.3615 0.884491
10447.1 87.705 0.885685
9456.72 80.1919 0.860136
9410.88 85.8638 0.953151
8755.04 82.4725 0.937694
8352.7 85.1916 1.02447
8379.13 84.395 1.05908
7441.15 82.2448 1.06669
7139.52 83.4411 1.12168
6638.05 77.5747 1.07757
6462.35 77.959 1.13437
6096.53 77.0053 1.16086
6508.08 86.2125 1.351
5831.92 75.3916 1.21702
5442.97 77.6815 1.29764
5872.12 83.9759 1.45684
5607.95 83.2709 1.48068
5259.47 77.2316 1.43664
5248.61 82.9562 1.57427
5218.27 82.7418 1.60858
4514.64 73.4779 1.48547
4700.77 82.4635 1.71828
4549.96 79.5134 1.718
4396.19 76.5122 1.6928
4438.72 85.1712 1.95184
4255.02 79.2044 1.85343
4093.76 80.41 1.95125
3654.72 75.899 1.85896
3960.38 84.1561 2.12394
3896.88 79.6685 2.07838
3587.24 79.044 2.12908
3655.53 81.8667 2.25213
3279.61 76.4852 2.16756
3338.32 77.4118 2.24236
3195.07 77.5127 2.33427
3052.56 74.2123 2.26866
3261.14 84.7685 2.6399
2719 70.2095 2.26863
2871.99 75.503 2.48828
2850.88 78.3679 2.6399
2765.46 76.7708 2.62952
2424.44 66.8666 2.36502
2649.16 80.1915 2.89251
2533.38 74.7856 2.77389
2455.6 75.5642 2.87075
2473.74 73.7758 2.88232
2247.9 71.2345 2.78013
2317.67 73.9885 2.95933
2248.55 76.4333 3.18889
2209.97 78.2852 3.30141
2014.67 70.6834 3.04028
2140.3 72.9592 3.22056
2001.75 72.3617 3.23038
1904.58 71.0926 3.29232
2059.87 77.9037 3.63368
1878.36 71.1163 3.37802
1879.62 74.7414 3.62283
1764.49 70.3847 3.49185
1723.52 71.7136 3.59897
1660.95 68.0678 3.48467
1635.76 69.5627 3.66261
1805.47 74.03 3.93322
1520.06 66.5716 3.61242
1664.04 71.3799 3.95594
1457.89 69.507 3.91071
1597.15 74.4859 4.31666
1488.73 68.8686 4.04462
1501.26 73.3121 4.37264
1445.86 69.0942 4.21693
1453.63 71.9347 4.3879
1348.54 66.3732 4.17403
1301.63 66.4203 4.23785
1249.06 66.4884 4.31512
1266.6 61.9191 4.12995
1273.11 67.9329 4.53177
1254.01 68.8155 4.70703
1183.9 66.2379 4.61068
1198.95 67.6823 4.78698
1165.9 65.4906 4.69571
1117.82 63.2584 4.58949
1084.45 61.4483 4.57336
1009.37 61.678 4.59523
1135.2 71.0844 5.443
1044.78 64.6809 5.03109
995.025 63.8799 5.07258
915.781 59.8282 4.80537
957.188 64.9679 5.29182
978.22 65.5394 5.45946
1003.52 66.8953 5.57841
949.892 62.4755 5.29504
941.806 63.759 5.512
924.676 64.3236 5.59513
896.103 62.0416 5.47692
938.709 65.1325 5.89254
877.619 61.6193 5.61175
864.652 60.8502 5.63331
807.069 58.9696 5.56799
835.885 64.9068 6.19982
857.164 61.9274 5.97193
775.089 58.5298 5.73936
779.409 61.2357 6.0722
777.356 61.2737 6.17431
807.704 63.1008 6.43146
816.508 68.7546 7.10838
726.689 61.9465 6.49966
696.647 58.8846 6.20876
673.873 55.4685 6.01187
734.629 61.2407 6.64976
688.259 58.8159 6.4581
632.639 56.6627 6.2758
682.175 59.0651 6.75735
642.97 58.0023 6.58771
583.475 55.0423 6.41208
618.592 59.9893 7.07513
680.843 64.6922 7.70851
560.054 54.9793 6.70428
613.011 56.533 6.86973
565.69 57.5662 7.13649
591.479 54.8225 6.8188
577.874 54.7863 7.02761
564.024 54.0998 6.9671
558.338 56.2229 7.25439
583.887 55.9535 7.40419
564.037 55.8089 7.42965
565.381 58.0299 7.80206
541.61 56.0117 7.63888
513.241 54.3239 7.44296
490.544 51.2396 7.08258
499.909 52.6737 7.40853
495.612 53.9615 7.72901
526.421 58.3384 8.40519
473.956 50.4686 7.35492
499.418 53.7176 8.04196
466.766 53.7741 8.02075
442.747 51.3982 7.74353
466.975 53.5647 8.17001
449.558 50.922 7.89285
438.907 49.817 7.6787
428.244 51.4718 8.02117
422.093 51.3626 8.13656
433.436 52.165 8.28327
407.907 52.4892 8.67124
395.235 49.2163 8.06716
440.338 53.8915 8.82542
407.761 50.4145 8.47228
403.944 50.5572 8.56188
403.452 51.6514 8.92161
404.043 52.316 9.11759
388.338 49.7809 8.67051
363.967 48.5128 8.47245
374.921 48.1304 8.63077
379.524 51.006 9.15851
350.98 47.6743 8.60765
345.3 48.5148 8.79218
333.932 44.4234 8.35131
330.931 45.1875 8.42656
355.958 49.2982 9.31502
353.487 48.595 9.31703
331.813 45.9448 8.78956
328.663 46.2061 9.01294
314.05 42.9855 8.54287
337.172 46.8976 9.26272
317.321 46.1471 9.26788
322.068 47.2962 9.51158
303.374 43.3353 8.92275
296.064 43.5466 8.92296
304.751 44.7249 9.34695
277.495 46.0844 9.69994
282.679 43.6065 9.2723
272.445 43.8563 9.38175
284.979 45.0326 9.68271
280.434 44.3722 9.66097
297.363 43.4865 9.52536
274.303 43.8914 9.75481
274.902 45.8082 10.2652
273.239 43.206 9.70427
259.124 43.3215 9.85161
256.607 42.7562 9.77735
263.665 42.7145 10.0181
252.76 43.8345 10.3501
264.715 44.5435 10.5331
245.128 39.9849 9.53325
230.506 40.2878 9.7469
247.94 41.6386 10.0729
248.985 44.9254 11.0493
229.672 41.3169 10.1659
224.792 40.0823 9.97547
216.581 38.7001 9.77658
233.612 42.1427 10.632
225.778 40.9774 10.3291
224.988 41.2509 10.7393
216.133 38.4249 9.96005
215.535 39.9644 10.5641
214.363 39.5767 10.4253
222.649 40.6611 10.9211
201.823 38.8548 10.3326
214.399 40.9824 10.9946
214.315 40.3599 10.9393
198.074 37.4712 10.1314
220.241 43.2466 12.1438
199.724 40.1264 11.447
189.065 37.7847 10.6067
193.599 39.8176 11.1326
186.082 36.2245 10.3602
211.855 39.8051 11.4117
196.9 39.7489 11.6085
200.816 39.2644 11.3944
188.656 36.7786 11.0357
170.957 36.0186 10.7501
186.607 38.3523 11.5563
182.32 39.2058 11.806
182.764 37.4223 11.3823
188.067 39.375 11.7953
181.957 38.7834 11.9849
162.735 35.0585 10.9474
183.731 42.185 13.2427
180.612 38.1811 12.1025
158.512 35.4721 11.1968
163.724 36.3343 11.8483
164.262 35.6733 11.4388
159.333 34.4031 11.2284
154.196 36.47 11.7658
153.433 34.8663 11.6194
156.303 34.3419 11.2747
159.289 36.5914 12.1352
159.179 34.4206 11.6693
143.442 34.0724 11.7773
148.529 35.2497 11.929
153.67 37.5554 13.0756
153.026 35.9859 12.3986
146.317 31.9629 11.2184
137.694 32.9412 11.4923
150.94 35.0825 12.5658
137.069 32.1957 11.644
144.21 34.9735 12.3506
139.659 33.1732 11.7711
130.948 32.8903 12.1307
134.817 32.1627 11.8536
137.404 33.5337 12.3351
133.297 31.0826 11.6791
141.117 33.7708 12.3869
124.178 30.5769 11.6326
134.468 33.8821 12.6284
123.514 30.7619 11.7238
123.32 31.418 12.1104
123.685 32.5004 12.4935
124.571 30.3158 11.8434
130.543 32.5005 12.8146
124.544 31.6801 12.4377
118.433 30.3954 12.2991
128.342 34.8641 13.9025
116.371 31.2651 12.6898
115.429 29.0219 11.4307
114.445 29.9525 12.4236
121.974 32.3694 13.1906
111.02 29.9256 12.5066
109.352 29.6705 12.3572
109.698 29.7608 12.3973
116.132 32.2937 13.8125
108.283 29.3344 12.2768
108.508 30.3379 12.7545
104.215 31.1927 13.8082
118.498 29.3778 12.2276
100.888 29.6578 12.8757
95.1332 26.4512 11.6113
107.08 28.5636 12.4835
102.227 27.4184 12.1805
106.318 28.9633 13.0368
101.853 30.1522 13.5823
100.885 28.1747 12.7241
101.215 27.5377 12.4068
102.868 28.9034 13.2205
98.3554 29.753 13.2972
96.2175 29.4444 13.8493
101.837 28.3458 13.3174
97.7523 28.6461 13.2482
89.3268 25.9812 12.1631
91.8376 26.4229 12.8761
94.8456 28.9238 13.5583
89.1045 27.1793 13.0916
91.7834 26.6411 12.8038
87.121 26.6314 12.7532
89.4796 27.4482 13.5093
86.8209 25.9882 12.9686
91.8442 27.1835 13.3849
92.2276 27.7719 13.6108
88.2074 28.5385 14.6182
84.8427 26.953 13.1944
89.7576 29.6528 15.0681
87.1136 27.9535 14.218
85.5171 27.0051 13.5937
84.7914 26.6341 13.7529
82.9814 26.0843 13.4674
81.5275 25.2535 13.0708
83.4145 26.6015 13.6651
75.8626 25.3197 13.5961
81.2523 26.1064 13.5404
79.6327 23.4857 12.3602
78.4684 25.2709 13.4604
81.1413 26.8234 14.5438
81.6986 25.7399 13.9007
75.4853 24.5021 13.209
81.4619 25.947 14.1888
73.1818 26.5557 14.4062
73.3985 24.0617 13.7371
76.2925 25.8105 14.2185
70.1738 25.3636 13.9877
72.9936 23.5207 13.3784
71.0025 23.1669 12.937
71.5963 24.8408 14.0914
70.698 23.4302 13.6785
69.6739 24.0476 13.7342
71.4855 24.174 13.5162
68.3539 24.2524 13.9987
70.7912 25.1688 14.4706
66.7031 21.717 12.9587
70.748 23.9747 14.2549
72.5895 24.5045 14.4579
65.6513 22.904 13.3654
65.5336 24.3977 14.7278
66.909 22.7626 13.7131
67.1269 24.6917 14.891
70.1571 24.1914 14.5662
66.7784 24.7811 15.1309
63.5459 21.6929 13.3597
66.9901 23.1643 14.2295
60.0574 22.0673 13.5515
62.8172 21.8474 13.8145
63.6355 22.5602 14.1141
61.9443 23.6109 14.7486
57.5684 21.7841 13.6323
61.8953 21.9383 14.4344
64.6374 23.3798 14.7332
56.7319 21.3471 13.8543
58.7832 21.8454 14.3686
62.2521 21.9597 14.0281
54.9718 20.5012 13.1842
62.2316 21.4894 14.0085
56.5828 21.8045 14.2073
62.2141 22.6556 15.1973
58.0204 22.8789 15.2795
59.2631 21.9041 14.6003
58.8657 21.4371 14.3732
53.0993 20.2497 13.9105
55.6922 22.0909 15.1658
54.5606 21.5498 14.5363
54.2524 19.7903 13.4393
58.6898 21.7974 14.8887
53.8244 19.9672 14.0532
55.3434 20.5993 14.1525
54.4557 22.3185 15.7251
52.4933 20.0071 14.2226
53.7577 19.9082 13.8739
52.8076 21.8157 14.9213
50.9487 19.2129 13.9675
52.5484 20.0559 14.1318
52.3512 20.3511 14.8463
52.145 21.2173 15.0266
51.0974 20.2224 14.8129
52.423 21.6416 15.3477
53.804 20.5179 15.1964
50.5367 20.6125 15.2925
49.7297 19.858 14.8297
51.9561 19.1294 13.788
47.7106 19.7522 14.8563
48.0489 18.6773 13.8891
48.3031 19.5624 14.5959
47.2862 18.8842 14.5765
49.3359 19.6753 14.4115
49.7827 19.6683 14.8321
42.6796 18.451 14.492
47.7132 20.8535 15.6336
47.0487 19.3609 15.0823
44.4613 16.339 12.8616
44.828 18.9171 15.1004
45.5721 19.1672 15.1839
46.0152 17.6657 13.5823
44.0063 17.952 14.0375
44.6578 18.1881 14.2624
44.1479 18.1187 14.4376
44.9511 18.1367 14.5615
43.7399 18.6206 15.2114
43.1882 18.3304 13.9877
41.0332 17.9246 14.7259
42.7855 18.7472 15.1335
41.9372 17.3576 14.2633
40.3089 16.3204 13.5369
42.9732 17.5568 14.7959
43.7472 18.0927 14.915
39.6763 17.2446 14.3594
41.07 18.0791 14.6296
44.0108 18.5295 15.4937
40.7804 17.3887 14.6416
39.4498 17.401 15.0854
40.9624 17.9101 14.8045
37.7711 16.3302 14.2695
37.3999 16.6058 14.2925
41.8922 17.6883 15.1948
39.9436 17.5863 14.98
36.9984 17.3624 15.0456
36.867 15.8769 14.395
40.405 17.0351 14.4427
37.8154 17.5346 15.8231
39.6337 17.578 15.2647
37.7295 16.2894 14.2854
36.9453 17.2959 15.1356
35.7827 16.7835 15.0777
38.4574 16.5418 14.9391
34.6279 15.9936 14.299
36.0741 16.3997 15.1967
40.1295 18.0227 16.408
35.8492 16.6981 14.9343
35.8465 16.4538 14.8312
34.905 16.2033 15.1709
36.1407 16.276 14.4967
36.0726 15.7231 14.6947
36.6943 15.2227 13.7645
35.0405 16.1637 14.7793
36.1221 16.0176 15.3329
35.6434 16.9026 16.1523
34.7672 15.6526 14.5824
33.8593 16.0349 15.6314
33.974 15.1697 14.4871
33.8587 15.322 14.6901
33.9874 15.3905 14.7648
34.9818 15.9648 14.7473
35.9658 16.6062 15.8413
32.9603 15.8271 15.6645
34.3747 16.064 15.6851
32.261 15.5042 14.8839
29.7908 14.3008 13.9796
30.6984 14.8372 15.0829
33.4586 15.9527 15.518
32.22 15.5761 14.9467
31.5953 15.7553 16.2581
34.4269 15.8442 15.8756
31.7697 14.8614 14.8517
33.8284 15.4372 14.8999
31.7493 14.7715 15.4432
30.1586 14.6617 14.7665
29.1771 14.6692 15.467
29.0654 13.4278 13.4095
32.3333 15.3207 16.0154
30.4132 14.8805 15.4799
33.1097 16.0737 16.2563
29.9287 14.8388 15.2595
29.3943 13.1206 13.6152
28.4698 14.0643 14.9379
28.0451 14.0079 15.0223
30.6131 14.5245 15.6265
28.9635 14.7739 15.2107
29.555 15.2065 16.1448
29.4933 15.3946 15.8838
27.643 13.3529 14.3074
28.0999 14.1304 15.4141
28.9323 15.192 16.202
27.7102 14.1112 15.2081
28.3715 14.9441 16.5718
28.8347 13.8024 14.928
27.3583 13.4887 15.2127
27.7563 14.0123 15.4787
28.7626 13.5794 14.7449
28.359 13.7251 14.7462
28.3495 14.471 16.0721
28.6057 14.5423 16.072
26.0456 13.5749 15.2964
26.5903 14.3002 15.8945
28.368 14.0506 15.6472
28.9136 14.4518 16.1032
26.9921 14.5191 16.1403
26.3546 13.9298 16.0452
27.4114 14.6875 16.7612
25.4826 12.8791 14.5806
26.3514 13.5698 15.7125
25.6823 14.0564 16.0682
26.8349 13.1871 15.5
26.3244 13.7073 15.4064
25.6762 12.6374 14.6953
24.1215 13.2137 15.37
27.1414 13.6753 16.0352
25.7017 13.2616 15.5169
25.9846 12.8242 14.9522
25.9341 12.3601 14.3819
24.8543 12.4751 14.7596
24.5149 14.0911 17.0479
25.536 13.0258 15.7087
25.8005 14.1374 17.0153
25.5362 13.3767 15.9188
25.3318 13.0549 15.7119
25.7207 13.7861 16.5939
24.6272 11.7028 13.7611
23.3927 12.1541 15.2937
22.3324 12.3329 14.811
23.3755 13.0221 15.9066
23.956 12.9297 16.0444
24.9401 13.1504 15.7979
24.5184 13.3209 16.539
23.8606 11.8827 14.7908
22.6958 11.9635 14.7894
24.3375 12.5126 15.7163
23.1559 11.796 15.2668
24.3762 12.8364 15.9771
23.3734 12.4925 15.431
23.2397 12.537 15.7412
22.4152 12.6502 16.2218
23.1923 13.125 16.5786
23.5587 12.265 16.1159
23.3006 11.9461 15.1718
22.2646 11.531 15.2114
22.0815 10.6419 13.84
21.2016 11.7815 15.133
22.3513 12.4704 15.7169
22.7627 11.962 15.5679
21.7785 11.8314 15.767
21.9088 11.9764 15.5566
23.2397 12.1544 15.7732
20.2178 11.0205 14.8976
21.9972 11.7602 15.7053
23.092 12.2542 15.6198
21.7596 11.7779 16.4636
21.022 11.3267 14.7448
21.0337 11.6963 15.6043
20.1752 10.8303 14.123
20.5891 10.858 15.005
21.4083 11.8801 16.1308
20.4795 11.3267 15.0952
20.1265 12.1329 16.9799
21.7099 11.222 14.9196
20.1136 11.2479 15.519
21.644 11.058 14.7727
20.7554 11.6179 16.0382
20.5843 11.7405 16.0423
20.9677 12.3796 17.3782
21.1631 10.9321 15.2207
19.1471 10.4529 14.1491
19.7367 10.5869 15.0372
19.0092 11.4107 16.2477
20.809 10.8363 15.5553
19.6513 11.2342 15.7053
18.9812 10.2953 15.0109
19.5811 11.7723 16.4397
19.9203 10.8249 15.3146
19.5527 10.198 14.5605
20.2988 11.1178 15.7918
19.6341 10.5991 15.2275
18.6101 10.1447 14.542
18.341 10.7296 15.6705
19.4108 10.6965 15.55
19.1695 11.2068 15.7476
18.9415 11.0104 16.3894
19.0584 10.7734 15.4745
18.4346 10.3225 15.163
18.2173 10.4435 15.6208
18.1573 10.1516 15.0751
17.3679 10.145 15.6811
18.9967 11.2093 15.9817
17.5215 10.4353 15.5598
17.5982 10.4137 15.7127
19.5159 10.6166 15.9674
19.0884 9.92532 15.2811
18.5062 10.5763 15.326
17.2546 10.3356 15.6431
19.0252 10.2857 15.3887
17.6208 9.66456 14.7631
17.8813 10.3164 16.1291
18.3335 11.249 16.9471
19.0191 11.5286 17.0454
16.7039 9.73181 14.7218
17.2596 10.3814 15.7833
18.7659 10.2028 15.5287
17.1141 9.90282 15.5492
17.3182 9.68317 14.8657
18.0983 10.5497 16.1735
16.4176 10.0776 16.4136
17.5675 10.7351 16.6561
16.9226 9.42876 14.8289
16.3353 9.78745 16.0678
16.6493 9.60309 14.9366
17.0519 9.93379 15.4679
16.5213 10.0512 16.1501
17.3221 10.4949 16.8271
16.8121 9.82351 15.2002
17.1422 9.81919 15.7413
17.0325 9.94311 15.8397
16.5673 10.6303 16.6258
16.4706 10.7803 17.0929
15.8936 9.88015 16.693
16.6331 9.54401 15.0053
15.7708 9.87476 16.2202
16.1762 9.44411 14.958
15.9605 9.39364 15.1191
16.1409 9.32657 15.8264
15.4421 9.46158 15.9885
16.3309 9.51328 15.6966
15.2117 9.54017 15.266
16.0973 9.54444 15.6157
15.5496 9.83453 16.6635
15.5193 9.93764 16.571
16.4378 9.21427 14.7931
16.2074 9.6211 16.3254
15.7292 9.62106 16.4738
14.8904 9.7235 15.9258
15.5603 9.65182 16.5332
15.6878 9.83111 16.5269
14.8975 9.50889 16.0236
15.5167 9.41261 15.8379
15.2452 9.08243 14.7455
14.7449 9.40507 15.948
15.5445 9.42836 16.1334
14.9569 9.29533 16.1425
15.3713 9.37948 16.6889
15.0671 8.98198 14.6955
14.9558 9.33374 16.8888
13.738 8.59069 14.8733
14.6868 9.34307 15.7338
14.2937 8.61274 14.8435
15.5102 9.38016 15.9288
14.0378 8.77093 15.5403
14.0722 8.87043 17.1262
16.0917 9.73219 15.5912
14.3419 8.86061 15.4221
14.6228 8.98144 15.9887
14.9229 9.06024 15.9658
14.4383 8.92836 15.6567
14.1424 8.98024 15.8174
14.5151 8.69006 15.779
14.9958 8.94236 15.9164
14.2384 9.11013 16.3238
14.1724 8.74708 15.8651
14.5139 8.78982 15.5344
13.4994 8.97798 16.3772
14.4071 9.16537 16.3862
13.7667 8.63611 16.1704
14.0717 8.92092 16.1603
14.3399 9.1414 16.759
13.9726 8.90375 15.6275
13.9734 9.0882 16.3823
13.0372 8.60995 16.7961
12.9751 8.61823 15.638
13.798 8.97876 16.1623
14.3303 8.78233 16.1431
13.3159 7.99202 15.5775
13.1618 8.43582 15.4105
13.9896 8.54521 15.9073
13.2267 8.4898 16.0536
13.6248 8.13204 15.1259
13.6641 8.8069 15.7795
13.8349 8.51506 15.8735
13.108 8.30673 16.1601
13.4359 8.66388 15.6632
13.2185 8.74982 16.6534
13.6252 8.57813 16.4871
12.557 7.90764 15.3678
13.7017 8.80886 16.3401
13.4876 8.46273 15.6618
13.2833 8.7524 16.6089
12.6769 7.93189 16.2461
13.2771 7.83575 14.662
13.4579 8.43069 15.9636
13.0203 7.49694 14.5915
12.328 7.91784 15.4664
13.3542 9.13083 17.2063
13.9927 8.52907 16.742
13.1814 8.19618 15.9682
13.1762 8.22249 15.8673
12.8426 8.4417 15.8118
12.9764 8.42282 16.3887
12.6398 8.21808 16.1268
12.562 8.00021 16.3245
12.9254 8.27779 16.5466
12.6458 8.47905 16.3576
11.7242 7.89642 16.1138
13.2914 8.00338 15.657
12.3453 8.1406 16.4356
12.743 8.35425 16.3948
11.7104 8.00544 16.4127
12.5432 7.85725 16.0491
12.5401 8.10996 16.242
11.977 8.2151 16.4973
12.7056 7.8595 16.2873
11.5893 7.8027 16.2278
12.3418 7.68099 15.6959
12.6355 8.74401 18.0259
12.0036 7.91741 15.6356
12.3726 8.01069 16.4055
12.5485 8.37666 17.0625
12.0995 8.03938 16.0806
12.2151 7.89807 16.0512
11.5686 8.26962 16.5591
11.8277 7.58516 15.8673
12.4318 8.46351 17.1127
12.619 8.09832 17.2143
11.8207 7.74445 15.2976
11.6041 7.47833 16.1738
12.066 8.03816 16.6116
11.9096 7.61544 15.4829
11.5356 7.8263 16.9095
12.1894 7.93375 15.7857
11.1454 7.97997 17.2404
11.6441 7.8479 16.1767
11.6132 8.57107 17.6821
11.3376 7.74064 17.0239
11.5354 7.3468 15.6231
11.3247 8.016 16.5606
10.9219 7.30325 16.123
11.7413 8.19963 17.1713
11.4272 7.16327 15.4321
11.4124 7.83706 16.886
12.0879 8.04622 16.8427
11.4441 8.1509 16.8822
10.9399 7.04376 15.3082
10.8618 6.7693 14.8935
11.1111 7.70008 16.2725
10.871 7.50096 16.3581
11.4847 7.44995 16.0745
10.7342 7.40386 16.4993
11.1485 6.97979 14.8045
10.894 7.22554 15.6502
11.0607 7.29319 15.9359
10.994 7.29968 15.8087
11.2349 7.25765 16.612
11.0968 7.63441 15.8753
10.8324 6.44684 14.8181
11.0117 7.42042 16.3849
10.9885 7.39282 16.4976
10.8018 7.29795 15.8328
10.8343 6.80231 14.7809
10.6242 6.85137 15.877
10.7566 7.45639 16.7206
10.7056 7.09295 15.5406
10.5476 7.3245 17.1413
11.4411 7.38817 16.4946
11.2435 7.51803 16.407
10.306 7.24998 15.9044
10.5192 7.18729 16.2831
10.2821 7.64494 17.5599
10.6101 6.86914 15.9145
10.4862 7.10709 15.6772
10.717 7.12802 15.8182
10.3996 6.70629 15.6919
10.5367 6.74698 15.1077
9.9706 6.75101 15.3903
10.1789 6.43787 15.2663
10.357 6.86906 15.8311
10.7051 7.48466 17.3795
10.9549 7.77262 16.9825
10.0483 6.88917 16.0716
10.0552 6.60188 16.6194
10.8426 7.50192 16.766
10.557 7.25339 17.2651
9.87196 6.69613 15.0988
9.79505 7.10121 16.7557
10.2326 6.78988 16.0044
10.2702 6.97207 15.6052
10.4763 6.71011 15.8399
9.86741 6.40527 15.7923
9.66432 7.28379 17.3419
10.2695 6.99034 15.6541
9.67585 7.01026 16.6628
9.80913 6.85863 16.565
9.828 6.71619 15.9836
9.66541 7.13196 16.5392
9.85225 6.34671 14.3964
9.51626 6.89831 16.5199
9.74814 7.15679 17.0326
10.037 6.88321 16.1599
9.4084 6.59617 16.1537
9.75242 6.3845 15.4089
9.58352 6.47862 16.0452
10.0278 6.64576 16.2144
10.1234 6.81092 16.3684
9.98353 6.42741 15.5116
9.97768 6.55014 16.2953
10.3743 6.6389 15.8268
9.06133 7.20556 17.6202
10.0149 6.5788 15.252
9.73001 6.24494 15.3998
9.54603 6.66706 16.4663
10.265 7.1164 17.204
9.37297 6.49066 16.5493
9.27922 6.68022 16.0653
9.79668 6.75186 16.6165
10.0059 6.78697 16.5323
9.48827 6.68993 16.1398
9.47753 6.22059 15.9918
9.58228 6.94894 17.2334
9.69357 7.04433 16.851
9.47704 6.82091 17.3952
9.31484 6.42089 15.4837
9.60217 6.61539 16.7121
9.31135 6.90525 17.657
9.4065 6.52525 16.1055
9.52111 6.58199 16.0162
9.45841 6.2267 15.7367
9.04544 7.03899 17.758
9.0504 6.71257 16.5512
8.90458 6.76483 16.4383
9.20548 6.27029 15.3796
9.22666 6.70312 17.5403
9.23171 6.49252 16.5433
9.34776 6.60389 17.1121
9.45341 6.39836 15.7656
9.18985 6.29602 16.4603
9.40498 6.77764 16.9144
9.32807 6.59819 16.8501
8.84488 6.52312 16.2789
9.15326 6.25384 16.2086
9.22533 6.22936 17.2398
9.30063 6.4367 16.1146
8.80911 7.04072 18.2102
9.09266 6.37759 16.3736
9.01009 6.73876 17.0475
8.72347 6.40367 16.1684
8.80388 6.47973 17.5889
8.48614 6.4597 16.8354
9.092 6.52023 17.8856
9.14965 7.00132 18.3852
9.32763 6.80886 17.5346
9.24705 6.6447 17.0921
9.16913 6.77514 17.7694
8.84763 7.11039 18.5784
9.38268 7.15126 18.1711
9.26595 6.66692 17.0714
8.77926 6.43216 17.0374
9.17459 6.89905 17.8952
8.54403 6.40596 17.203
8.72145 6.4263 16.2621
8.46731 6.64768 18.2497
8.87583 6.53864 17.5679
8.68077 7.02072 18.0511
8.41056 5.99435 16.166
8.96797 6.4759 17.3329
8.57135 6.61086 17.9358
8.63323 6.11614 16.5706
8.48067 6.66247 17.7641
8.6476 7.03726 18.0464
8.407 6.2541 17.8724
8.07885 5.94229 15.8634
8.94814 6.46747 17.3105
8.7367 6.75137 18.2301
8.93075 6.23942 16.2763
8.38565 6.09612 17.0313
8.67538 6.23811 16.1868
8.37781 6.3858 16.8801
8.41216 5.99017 16.7715
8.65579 6.49116 17.4743
8.77087 6.08027 16.2904
8.43692 6.22254 17.3842
8.20865 6.44481 17.5295
8.31114 6.13653 16.9349
7.95352 6.1157 16.6724
7.78189 5.90762 15.5662
8.4029 5.98823 15.854
7.91314 6.0733 17.2537
7.94542 5.92575 17.515
8.39873 5.7401 15.1577
8.19029 6.30149 17.4576
8.23539 5.85732 16.5009
8.16831 6.00551 16.3656
8.55638 5.77205 15.9174
8.31348 5.85144 16.5618
8.3124 6.00242 17.9358
8.57647 6.21268 16.2535
8.12139 6.21223 17.6407
8.27814 5.85583 16.9961
8.31635 6.02165 17.0049
7.81096 6.03138 16.9366
8.3791 6.03079 16.4077
8.46929 6.12461 17.4752
8.46627 5.89932 16.7183
8.2707 6.44606 18.0287
7.97819 5.9962 16.2283
8.10559 5.73377 16.6621
7.90563 5.44656 16.1448
8.28379 5.72533 16.3735
7.93933 5.51056 15.2195
7.80394 6.30124 18.3133
8.10951 6.22638 17.5487
8.05222 5.96644 16.7365
7.89841 6.14117 17.2289
8.07758 5.89904 16.851
7.68529 5.60093 15.8422
7.85522 6.12832 18.004
7.89464 6.35049 17.5201
7.89001 5.47577 16.8922
8.49079 6.15883 17.6278
8.05687 5.8433 16.3245
7.56615 5.95614 16.6572
7.67246 5.63219 16.0213
7.67288 5.65305 17.1608
7.92892 6.3397 18.3555
7.3668 6.35732 18.0068
8.2692 6.2819 18.545
8.10834 5.45518 15.4878
7.66395 5.67008 17.2363
7.58933 5.81879 17.2867
7.82917 6.08963 17.4951
7.48744 5.78834 17.2482
8.23624 5.56798 16.1968
7.9046 5.82754 17.3897
8.00002 5.89862 17.1846
7.51694 6.10297 17.6728
7.87701 5.83804 17.492
7.30671 5.58619 17.7139
7.76657 6.12273 18.0424
8.07696 6.28557 18.3219
7.24904 5.65642 18.0268
7.69907 5.8305 16.9711
7.80532 5.73356 16.5328
7.5968 5.4675 16.5052
7.61168 5.7939 17.2864
7.23806 5.92693 16.9506
7.7476 5.20881 16.4874
7.52466 6.21893 17.9259
7.41627 5.88136 17.8562
7.44769 5.84476 16.2327
7.2782 5.9786 18.0231
7.69236 5.72418 17.1675
7.66881 6.02693 17.741
7.1687 5.67307 16.5631
7.42762 5.65825 17.4176
7.30642 6.12014 18.5646
7.79513 5.42974 16.6634
7.13354 5.67323 17.1152
7.27343 5.92522 18.0368
7.71897 5.72506 17.4674
7.26272 5.60111 16.9153
7.09398 5.89707 18.706
7.61074 6.0309 16.9456
7.21018 5.38823 16.819
7.44105 5.90209 18.045
7.34723 5.34788 17.3409
7.46223 5.50833 17.1005
6.8475 5.58572 16.9272
7.40372 5.48778 16.7271
7.11186 5.691 17.1923
7.56315 5.73446 18.1265
7.47784 5.88684 17.5735
7.43034 5.77185 17.1754
7.09565 6.06331 19.303
7.31666 5.5346 16.5913
7.10688 6.23147 18.531
6.98825 5.71344 18.1292
7.44419 5.64115 18.078
7.14909 5.28498 16.6245
7.39446 5.56099 17.2245
7.08278 6.0158 18.4199
7.26598 5.89991 17.579
7.3706 5.35059 16.9496
7.12796 5.99268 17.857
6.73057 5.60238 18.0878
7.16484 5.41164 18.584
7.34732 5.60064 16.6443
7.49065 5.65482 17.5346
7.02637 5.52254 17.8455
7.42376 5.3944 17.5786
7.28454 5.56557 17.7007
7.17341 5.32463 16.3571
6.98233 5.86801 17.9487
7.233 5.59669 17.0703
7.33749 5.43377 17.6269
6.9449 5.99072 17.9272
6.87793 5.57386 16.9425
7.05719 5.31962 18.6186
6.94256 5.55215 17.4786
6.81025 5.17432 16.6517
7.04027 5.9267 17.9027
6.76797 5.56772 18.8269
7.02366 5.55007 17.3854
7.07136 5.78535 17.8335
6.82934 5.42254 17.6807
7.01398 5.31546 17.2362
7.2515 5.53175 17.2639
7.02495 5.50918 17.7382
6.59179 4.93789 16.4653
6.71668 5.20584 16.8161
6.50419 5.55001 17.8758
6.81795 5.7029 18.4386
7.36856 5.80895 17.9311
6.90819 5.58441 19.215
6.97085 5.56101 17.4794
6.92676 5.35972 17.1267
6.84866 5.37654 17.7857
7.0306 5.51265 18.2176
6.73775 5.48281 16.5053
6.69979 5.32749 16.8255
6.62017 5.30156 17.4956
7.03727 5.55409 17.6416
6.80811 5.24493 18.2862
6.82371 5.51232 17.2704
7.13145 5.38932 17.2782
6.75359 5.1957 17.4801
6.92033 5.41532 16.5292
6.51568 5.12241 17.7135
7.00812 5.7533 18.3336
6.92177 5.20123 17.586
6.83323 5.16817 16.4926
6.65156 5.29582 18.4818
6.4651 5.57179 17.7915
6.76879 5.25169 18.2609
6.66906 5.30205 17.8374
6.62674 5.42493 16.9057
6.56108 4.96102 17.3202
6.46055 5.61004 18.6565
6.76596 5.58042 16.9553
6.32646 4.91831 16.8399
6.53787 5.28039 17.818
6.83632 4.98235 16.92
6.74808 5.46038 17.9274
6.59444 5.02545 16.2285
6.54714 5.0682 16.8202
6.56924 5.19512 17.2096
6.93274 5.76979 17.8384
6.30884 4.94459 17.8812
6.67903 5.44363 18.1737
6.7729 5.34243 18.0728
6.45663 5.72681 19.3401
6.4666 5.26732 17.1325
6.67471 5.05254 17.7334
6.62918 4.56438 16.9399
6.5149 5.67671 17.7634
6.49985 5.10236 16.4675
6.17967 5.03386 17.2139
6.21416 5.35226 18.8768
6.85765 5.44894 18.318
6.61661 5.30682 17.4537
6.50607 5.16928 16.7634
6.50144 5.03736 16.9305
6.48976 5.19195 17.3704
6.36714 5.01352 17.3624
6.39784 5.22026 18.0717
6.926 5.04417 17.3843
6.50054 5.26758 18.9634
6.50806 5.45278 17.632
6.35595 5.338 18.8117
6.40088 5.03361 16.3313
6.47314 5.10806 18.3105
6.27015 5.35874 17.9482
6.48287 5.37903 17.6942
6.53773 4.92038 17.2658
6.69889 5.38699 17.9161
6.3082 5.34145 18.6964
6.38902 5.35505 17.9633
6.33181 4.88328 16.9914
6.02803 4.91498 17.5532
6.57346 5.30554 18.0526
6.47289 5.3991 18.2655
6.58848 5.10576 17.2323
6.38344 5.00672 17.2911
6.46206 5.22084 17.9885
6.32245 5.02418 17.2913
6.48071 5.13191 19.3216
6.50892 5.36179 17.7035
6.36704 5.10935 17.8038
6.52739 5.0776 18.4626
6.65884 5.35581 17.441
6.18832 5.26534 19.3399
6.56816 5.45172 17.2429
6.20484 4.95469 17.88
6.66772 4.73302 16.9972
6.14417 5.24678 18.7868
6.22955 5.24957 17.829
6.30183 5.05804 18.0498
6.08085 5.37698 18.8111
6.64001 5.10534 17.2519
6.03023 4.94006 18.2813
6.28257 4.67376 16.4115
6.19917 5.0191 16.0882
6.08772 5.07498 18.1129
6.14309 5.65864 20.5194
6.52192 5.47855 19.6009
6.21725 5.16753 17.8171
6.29318 5.45084 18.6149
5.8141 5.37546 19.8687
6.12833 5.21684 18.0658
6.12774 5.13392 18.5387
5.97086 5.12739 17.3985
5.94325 4.90965 17.9894
6.3148 5.15192 18.2667
6.26571 4.95709 17.3828
6.19309 5.34658 17.7654
6.26784 4.92052 18.5234
6.29764 5.26288 17.7559
5.89032 5.22592 18.0412
6.30018 4.761 17.6038
6.3696 5.22475 19.3413
6.06255 5.2054 18.0524
6.09662 5.19603 18.9243
6.26353 5.03822 17.7904
6.05551 5.09231 18.0683
6.05203 5.44847 18.5236
6.12161 5.09179 19.1884
6.08028 5.34054 18.578
6.0531 5.02686 18.4338
5.9962 5.17187 18.8049
6.41803 5.22845 19.5955
6.12215 5.38937 19.5808
6.0456 5.56976 18.9071
6.33732 5.13136 18.3327
6.43944 5.56099 19.0448
6.32222 5.53282 20.5056
6.25589 5.06768 17.6828
6.04297 5.02144 18.9687
6.18104 5.49766 20.2528
5.99429 5.37033 20.6208
6.35449 5.83921 21.0866
6.31044 6.06372 20.9056
5.95567 5.60214 21.3042
6.36868 5.86817 19.9544
6.36812 5.21625 19.1136
5.92219 5.33797 20.344
6.3303 5.77134 19.3823
6.22969 4.94767 18.0792
6.24406 5.07911 17.5277
5.97473 5.15614 19.3666
5.99774 5.14614 19.7426
6.12898 5.41401 19.2404
5.89795 5.0244 18.0926
6.09628 5.253 19.1762
6.10999 5.34437 20.1905
6.16095 5.17384 18.5323
6.07788 5.19406 17.8078
5.97835 5.41181 19.5536
6.10721 5.09796 19.5853
6.02366 5.4113 18.6623
6.03051 4.94487 18.0992
6.15221 4.98677 18.8301
6.06444 5.46855 19.8149
6.12747 5.23293 18.8047
5.84144 5.11949 18.3233
5.7949 5.16846 18.919
5.7227 5.00622 18.6114
5.99602 5.05349 18.2387
5.79106 4.78586 17.5963
5.67186 5.11531 19.2334
6.05404 4.68266 17.8218
5.81173 5.00542 18.7084
6.01476 5.47246 20.7533
5.85901 5.28738 17.8993
5.6069 5.03067 19.469
5.73816 4.95887 17.908
5.82126 4.86845 18.037
6.03155 5.03094 19.17
5.97497 5.09943 19.2396
5.69514 5.29585 18.9121
5.99118 5.0705 19.154
6.03805 5.58246 20.3821
6.24747 4.77843 19.4292
6.3268 5.63145 19.7886
6.1108 5.27509 19.5654
5.93605 4.82395 18.3516
5.77863 5.064 18.736
5.77627 5.09891 17.7197
5.64641 4.83485 19.659
6.13744 5.17508 19.132
5.73354 4.81508 19.2249
5.93771 5.1329 17.1738
6.12837 4.72169 18.6175
5.82347 4.8483 16.9889
5.58974 4.88066 19.2608
5.83558 5.20524 18.7619
5.85232 4.89428 18.6905
5.94353 5.01156 18.2016
5.427 4.56593 18.2438
5.80762 5.19028 17.6128
5.57583 4.43842 19.0375
5.88641 5.2961 18.9595
5.7633 5.19685 19.1598
5.7421 4.96949 18.2697
5.93297 5.23165 20.0214
5.83555 5.17838 18.0345
5.94822 4.76987 18.5122
5.84015 4.87186 19.297
5.59651 5.03224 18.5181
5.77272 4.68559 17.8619
5.38063 5.38724 19.0956
6.03164 5.12243 19.7684
5.63429 4.92166 18.6454
5.85816 5.44761 20.5595
5.70885 4.89741 19.6772
5.84195 5.07032 19.238
5.61617 4.73472 17.286
5.9452 4.81351 19.5823
5.74179 5.17379 18.4846
5.72777 4.82352 18.38
5.83373 5.36612 19.547
5.96715 4.78935 18.0234
5.88015 4.95691 20.054
5.60474 4.84712 17.6459
5.67603 4.81525 18.5318
5.85528 4.93823 17.8256
5.75862 5.08149 19.7872
5.90921 4.79716 17.7819
5.82939 5.13841 20.5929
5.77523 4.84931 17.9699
5.67571 5.23082 19.6266
5.634 5.43814 19.5126
5.97271 4.8477 18.5531
5.89707 5.22982 19.4025
5.89928 5.2014 20.3346
5.81977 4.86943 19.7339
5.73932 5.15506 18.2722
5.82199 4.87335 18.078
5.70472 4.57766 18.8188
6.05196 4.98458 18.9291
5.98637 5.07127 20.1823
5.67856 5.16254 20.0053
5.7904 4.94843 18.1704
5.54514 4.86256 18.207
5.99154 5.22682 20.1424
5.77441 5.25624 19.021
5.60454 5.12085 18.7862
5.53599 4.85187 20.4215
5.8449 5.08081 19.1291
5.65675 4.70621 19.371
5.61712 5.16394 18.2994
5.28108 4.65071 17.5071
5.54409 4.70623 18.7206
5.76631 4.94034 19.9058
5.32393 4.60007 16.6837
5.55667 4.49735 17.178
5.27231 5.15887 19.1122
5.58835 4.62611 18.0079
5.5726 4.5964 18.3888
5.41451 4.78237 18.034
5.49951 4.6374 17.7141
5.3218 4.45187 19.1447
5.5726 4.95097 18.5491
5.49251 4.58913 17.7375
5.51197 5.11751 19.4364
5.69584 4.98646 18.6496
5.50834 4.57731 16.9679
5.09546 4.59182 19.828
5.4681 5.09089 18.5568
5.74153 5.13084 19.6217
5.80607 5.11433 19.254
5.38046 4.59149 18.5332
5.4832 4.84211 18.0932
5.74413 4.82448 19.3505
5.68418 4.8821 18.8124
5.69436 4.79679 17.7436
5.4117 4.96357 19.0413
5.72358 4.58844 19.1155
5.77966 4.82002 18.9523
5.46178 4.85109 18.966
5.5105 4.82355 19.581
5.35821 4.77401 17.2474
5.63171 4.55219 18.111
5.45764 4.27837 18.4457
5.7729 4.61249 18.0078
5.42912 4.79131 19.3039
5.52922 5.24171 18.8797
5.48982 5.10578 19.168
5.4844 4.46292 18.7444
5.57616 5.13147 18.8604
5.64686 4.47556 17.2593
5.43904 5.02022 19.672
5.71059 4.62792 17.4508
5.42707 4.61432 17.7645
5.36717 4.53043 19.2457
5.69874 5.02871 18.6372
5.21958 4.82535 18.6157
5.57868 4.51925 19.0037
5.50543 5.04395 18.6633
5.45327 4.84883 19.6636
5.46098 5.10343 19.4923
5.52011 4.52387 18.3717
5.40724 4.86028 18.8895
5.5425 5.0145 19.9003
5.51632 5.05615 18.2478
5.55832 4.93063 20.5137
5.64417 4.92962 18.5871
5.39483 5.05576 21.5766
5.62586 5.18647 19.8019
5.37293 4.86853 19.3713
5.90466 5.27567 19.8897
5.58377 4.98963 19.5792
5.50107 4.75633 18.9259
5.41927 4.9451 18.3218
5.34167 5.0221 20.2829
5.51258 4.93061 19.3299
5.4498 4.83342 19.2789
5.4774 4.75048 19.0502
5.34058 4.81236 20.0882
5.36287 5.00122 20.5343
5.48086 5.10513 19.2391
5.51004 4.89689 18.6372
5.61984 4.48809 17.3501
5.49085 4.68148 18.8097
5.81606 4.98884 18.3982
5.7131 4.64769 20.2819
5.53498 5.02989 18.5256
5.6042 4.79583 18.8293
5.3329 4.87952 20.1487
5.61874 4.92317 19.6037
5.32872 5.10954 20.4044
5.56069 4.85257 18.671
5.39307 4.63483 18.8503
5.35882 4.89515 21.144
5.53517 5.56998 20.3348
5.59632 4.8489 18.2215
5.24309 4.92071 19.4862
5.22327 4.83562 19.8459
5.25342 5.2856 18.5474
5.48472 4.48267 19.7928
5.48782 5.0595 19.7003
5.57838 5.17272 20.3721
5.55478 4.81168 19.7319
5.2298 4.91339 19.6468
5.77666 4.89462 18.4922
5.65089 4.94748 19.8109
5.37388 4.54337 18.5624
5.28835 5.15585 20.5969
5.52337 4.85819 18.0467
5.25167 4.76451 19.2369
5.44112 4.76763 19.8471
5.45358 5.17639 20.0296
5.46878 4.94162 17.5385
5.13349 4.20002 17.3693
5.42096 4.63983 19.7798
5.46219 4.86812 18.0218
5.56613 4.43624 19.4387
5.48951 4.84895 18.3432
5.48484 4.72021 19.1451
5.70517 4.76866 19.3559
5.34255 5.05418 20.1109
5.45322 5.14063 19.9222
5.36373 4.99628 18.6754
5.36318 4.45409 18.048
5.33657 5.06303 19.3057
5.26636 4.5686 19.7156
5.6596 4.68511 19.105
5.58431 4.83457 17.9612
5.47707 4.79463 19.0707
5.21829 4.62207 19.0941
5.38252 5.11245 19.5219
5.35203 4.74377 19.2706
5.46372 4.90826 18.696
5.38082 4.87174 18.93
5.63373 4.67662 19.1579
5.35867 5.11039 19.67
5.36059 5.05199 20.4928
5.26768 4.66415 19.3589
5.60524 5.07216 20.6102
5.35277 4.79618 19.9131
5.28253 5.23284 18.8388
5.58387 4.92587 20.8789
5.67853 5.23882 20.7475
5.65648 5.0597 19.1378
5.43577 4.83177 18.9313
5.1254 4.62188 17.6323
5.2484 4.2914 16.9542
5.22186 4.53598 19.1517
5.42346 4.88633 19.3965
5.38729 5.06222 19.7561
5.32325 4.60123 19.6757
5.71475 4.96038 19.0225
5.42839 4.52774 18.4997
5.53598 4.57993 18.1607
5.27786 4.69284 18.125
5.3173 4.78569 17.84
5.37638 4.82809 20.4418
5.45157 4.77681 19.6559
5.5424 4.9441 20.7799
5.40585 5.41591 19.9207
5.38744 5.0779 19.6624
5.47422 4.94573 22.0231
5.52412 5.06553 19.2948
5.21354 5.09852 19.8694
5.38339 4.80676 19.7253
5.16236 4.82986 17.5212
5.326 4.52269 20.4977
5.7763 4.91853 18.3575
5.58181 4.82472 19.4953
5.32612 4.81703 19.5041
5.41087 4.7907 19.184
5.43612 4.98724 19.3362
5.40252 5.0087 20.0631
5.49475 4.87019 20.4922
5.63832 4.97759 18.3771
5.43744 4.70788 19.192
5.47812 4.91332 20.8988
5.65616 5.24146 18.8731
5.48631 4.70106 20.263
5.51258 4.87863 19.1299
5.46858 4.99019 20.3708
5.6471 4.90514 20.0068
5.47473 4.71592 19.2998
5.36997 5.23048 20.341
5.47467 5.44298 21.8583
5.53033 5.19712 20.6669
5.63484 5.35606 22.1018
5.80133 5.23993 22.1314
5.85478 6.06752 23.4747
5.652 5.50975 20.5067
5.40746 0 0