# pn-170911/CsIIA-27-USN3-1280-1959.psd
# Power spectrum* (dif=0,1,2) (really just |FT|^2)
# NOTE: only the first half! (symmetric)
# weeks: 1280-1959
# 1783 clock-days, 672 excluded
# PSD: 1441
282720 5.36985 0.0250953
5.45896e+06 38.5751 0.0132058
4.3211e+07 988.373 0.0321474
2.12084e+06 65.6326 0.0156374
3.28874e+06 238.529 0.0304458
762504 63.0063 0.0203731
552041 67.8233 0.0249068
396380 64.5052 0.0280358
313619 67.6797 0.0337105
234856 63.5319 0.0377099
193190 64.4018 0.0428029
152732 62.4674 0.0490997
131580 61.8827 0.0547837
114994 64.6896 0.0659241
96954.8 63.8262 0.0732303
83331.8 62.0633 0.07795
75949.2 61.7446 0.0877412
67948.6 63.8848 0.0997084
58173.8 65.3339 0.113596
53564.5 64.3789 0.124926
47737 62.465 0.131449
44161.3 63.0811 0.144324
39765.9 63.9828 0.15976
35747.6 61.555 0.165742
31225.3 60.1408 0.178065
31417.6 63.1721 0.200555
28822.7 64.2548 0.219432
25836 63.2033 0.232797
23892.6 62.3003 0.2464
23164.6 63.564 0.266105
21328.9 64.0614 0.286081
20122.6 63.8254 0.304632
18117.3 63.4341 0.321931
17328.2 63.5681 0.339646
16467.8 61.165 0.349399
15187.8 61.928 0.37314
14353.2 61.3117 0.390257
13865.6 63.8081 0.421289
13226.6 63.7513 0.448045
12445.6 63.6044 0.473779
11631.8 63.164 0.491319
11667.3 63.9959 0.52639
10317.8 60.2484 0.514368
10467.2 64.2345 0.579571
10025.4 62.0406 0.582769
9181.5 61.4057 0.602794
8853.84 61.6211 0.631994
8283.51 59.9956 0.637585
8069.65 60.3589 0.668669
7699.89 61.1392 0.708494
7629.53 62.5346 0.7569
6913.79 57.5281 0.729165
7016.16 61.7282 0.807782
6482.54 60.4359 0.809084
6392.9 60.8426 0.847445
6188.98 61.0412 0.890485
5689.72 55.8379 0.846799
5699.56 61.0967 0.952386
5671.03 62.5421 1.01234
5287.39 59.8432 1.00359
4917.03 57.5651 0.998017
4889.58 60.2568 1.08042
4647.16 58.4221 1.07639
4787.45 60.0371 1.14483
4229.63 57.8885 1.1446
4463.19 60.0614 1.22253
4297.9 60.6822 1.26991
4032.14 57.6634 1.24103
3822.39 56.4554 1.25397
3916.28 60.223 1.37148
3782.88 59.6235 1.40112
3616.03 57.2686 1.382
3478.35 55.358 1.37258
3364.87 55.8086 1.42844
3279.62 57.6192 1.51448
3187.16 57.9498 1.55233
3200.44 58.5987 1.61708
3061.19 58.7282 1.66809
2857.4 55.3394 1.60879
2815.65 58.743 1.75326
2844.84 59.852 1.82798
2604.31 56.8182 1.79098
2642.12 57.193 1.8415
2541.05 55.3308 1.81739
2572.28 55.892 1.87432
2470.1 57.2778 1.98084
2364.02 57.3144 2.02854
2270.62 56.0557 2.03094
2268.5 56.6966 2.09607
2279.35 56.7399 2.14529
2231.07 57.483 2.2014
2131.37 55.9235 2.19504
2096.77 55.4347 2.2309
2150.22 57.1286 2.34916
2074.21 57.087 2.40658
2063.4 59.628 2.56455
1949.64 57.2506 2.51712
1900.12 55.9969 2.51035
1865.23 57.6412 2.63505
1852.51 57.5636 2.6973
1681.4 53.1265 2.52694
1727.97 54.7892 2.67771
1683.47 56.5528 2.80099
1653.82 55.5299 2.78644
1675.86 56.2905 2.89178
1634.62 54.9292 2.88401
1528.25 54.0582 2.89204
1542.9 55.4437 3.0113
1546.63 54.9497 3.05581
1521.97 55.2793 3.12252
1478.79 55.6429 3.186
1366.79 51.7037 3.02754
1388.91 54.5341 3.26048
1399.77 55.9433 3.38098
1327.69 52.3531 3.2194
1310.07 53.7501 3.39754
1309.71 53.0682 3.39843
1279.37 51.7236 3.37443
1232.75 51.3754 3.40237
1223.99 55.026 3.67743
1210.49 55.5625 3.80795
1180.71 51.0773 3.53225
1176.36 53.5533 3.76291
1067.23 50.4906 3.61393
1074.59 50.5767 3.69099
1088.83 52.1316 3.8689
1061.45 51.8714 3.91662
1068.23 52.9676 4.06322
1063.78 51.3392 3.99308
999.759 50.2684 3.9712
1030.3 51.5585 4.13271
989.867 52.9551 4.30318
984.547 51.8363 4.29018
954.822 49.6852 4.14902
965.635 52.2723 4.44207
930.767 51.301 4.46134
887.262 50.64 4.42156
914.979 50.9594 4.52409
847.46 48.3751 4.38623
841.347 49.559 4.51014
853.859 49.8132 4.59782
821.901 50.1706 4.70946
797.099 49.0467 4.69097
809.192 49.877 4.82214
764.218 49.1426 4.80925
753.878 47.9967 4.78498
770.177 49.7822 5.01627
739.331 48.2305 4.92705
765.022 49.473 5.13053
717.199 48.3305 5.06124
732.959 50.6067 5.38105
696.445 47.9424 5.15562
691.983 48.2166 5.26214
668.951 47.8865 5.31862
671.355 46.9849 5.25694
672.197 45.7438 5.19253
695.757 49.4133 5.66233
656.377 47.9364 5.58831
613.317 45.404 5.32254
619.677 45.3621 5.42078
615.835 46.094 5.57334
605.622 48.6262 5.96233
594.726 46.8461 5.77571
588.419 46.612 5.83598
597.572 48.2427 6.118
578.302 46.7118 6.04297
563.561 46.3933 6.00529
558.936 44.2848 5.82955
558.425 47.2803 6.30165
554.721 47.1735 6.35337
548.844 47.7801 6.50817
530.769 44.8058 6.18711
525.649 46.037 6.39305
523.338 46.9709 6.60741
523.441 46.0439 6.56989
527.631 45.8567 6.61959
525.95 46.2136 6.73543
470.807 43.296 6.38575
484.821 43.5017 6.52036
504.011 45.6471 6.8349
484.285 47.0418 7.23422
458.198 43.8057 6.77017
469.909 43.7678 6.7948
448.796 43.3871 6.81141
456.937 45.1915 7.22717
453.022 45.0402 7.21223
435.217 42.929 6.96785
431.49 41.9663 6.88439
423.166 41.9402 6.94311
426.122 43.4649 7.32169
422.79 44.5035 7.50555
400.143 42.3855 7.33865
424.209 43.9753 7.59469
416.119 43.7988 7.65336
404.968 44.9851 7.93165
402.277 42.3225 7.53563
394.807 42.7103 7.70892
394.805 42.5407 7.74709
379.568 41.2057 7.56047
372.232 42.1157 7.7905
363.988 41.2447 7.77692
369.16 42.2386 8.02693
370.869 41.2956 7.92698
362.005 41.3054 7.96335
363.288 41.4446 8.08098
358.547 41.5187 8.23932
362.734 41.3351 8.19547
355.391 42.4765 8.5468
346.023 41.2555 8.32326
346.351 41.1393 8.42496
334.66 42.3835 8.71733
324.694 40.9177 8.55392
332.545 42.087 8.81373
327.676 40.9795 8.75142
323.915 41.2811 8.90164
320.423 40.1205 8.64709
311.317 39.4374 8.58966
316.518 39.447 8.6983
301.745 40.9023 9.2177
296.341 40.2928 8.95425
308.44 40.8014 9.21297
303.28 40.3085 9.11327
295.592 39.7621 9.1632
299.588 40.0391 9.29877
297.15 39.4018 9.26133
286.565 39.0743 9.13798
282.177 38.6392 9.32991
283.48 39.197 9.39427
280.647 40.0912 9.69059
272.934 38.9831 9.54689
269.574 38.6477 9.59285
260.579 38.5738 9.60061
263.204 38.228 9.56173
257.385 36.7533 9.29439
263.123 38.3378 9.80368
252.226 36.7219 9.37669
244.504 36.0734 9.389
252.76 37.7834 9.89201
247.86 36.8858 9.69536
247.354 37.4076 9.93189
237.131 37.5233 10.076
245.298 37.0524 10.0575
245.966 38.4042 10.488
234.311 37.1384 10.2311
227.874 36.123 9.95308
240.006 37.5033 10.4917
231.396 36.7488 10.362
235.969 37.0209 10.4388
222.39 36.366 10.4336
226.812 35.9937 10.3298
225.066 36.0917 10.4391
222.011 35.7192 10.5248
214.753 34.8771 10.2619
212.437 35.1598 10.4749
215.648 36.3902 10.8159
215.216 36.1315 10.9982
216.086 36.6163 11.106
210.076 35.8445 10.92
202.468 34.6083 10.7354
202.671 34.6896 10.8171
197.463 34.7751 10.8447
201.988 34.6296 10.8643
199.432 34.9892 11.1869
198.619 35.1085 11.1871
197.886 34.3446 11.1236
188.144 34.5067 11.2658
187.623 33.9845 11.0742
194.269 35.7605 11.806
191.453 35.4424 11.778
181.466 33.8046 11.2481
187.502 34.4864 11.6725
184.303 34.5031 11.7558
178.368 33.1227 11.2575
186.271 35.8043 12.3042
180.46 34.0788 11.7629
175.681 33.4786 11.8302
174.466 32.8377 11.4638
172.714 33.4777 11.8959
175.964 35.4341 12.7744
173.721 33.3312 11.9346
163.85 31.4113 11.377
165.586 32.8011 11.9282
166.399 32.387 11.7793
160.368 32.8789 12.0701
162.249 32.9831 12.3312
159.939 32.3671 12.0857
154.877 30.9194 11.6493
158.816 31.9656 12.1812
157.942 33.4018 12.8697
155.824 32.7186 12.7247
157.479 32.2173 12.3506
156.117 32.6579 12.7054
151.26 31.6063 12.4024
151.406 32.415 12.7304
150.391 31.6071 12.5334
139.308 29.4071 11.8365
141.667 30.9371 12.3869
144.71 31.1781 12.5998
146.279 31.5667 12.9338
143.137 30.2376 12.5153
140.642 30.4116 12.4828
141.569 31.115 12.9941
143.364 31.4049 13.1522
131.581 29.3515 12.2999
137.051 28.9799 12.2965
133.282 29.4275 12.6792
137.27 31.0662 13.2071
129.946 29.9554 12.925
132.717 30.4278 13.2921
134.214 29.8889 13.2017
134.783 29.9951 13.2372
134.344 31.3367 13.6633
129.752 29.2032 13.0389
125.665 29.6353 13.4561
125.614 28.7814 12.7934
125.658 29.3829 13.3717
124.19 29.0776 13.4468
124.933 29.2448 13.3026
122.975 29.2517 13.5468
126.084 29.4037 13.6733
123.416 28.2891 13.2776
121.133 28.5906 13.4528
117.913 28.5747 13.6085
122.031 29.8805 14.1338
118.793 27.5804 13.2283
116.033 28.1914 13.6655
118.499 28.4735 13.7797
115.114 27.8468 13.5138
119.285 29.9887 14.8166
119.674 28.7924 13.9757
115.418 28.1927 14.0262
110.719 27.7071 14.0261
112.819 27.5304 13.7012
112.907 28.5103 14.3129
109.12 27.8322 14.1332
109.067 27.9304 14.2156
107.666 26.923 14.0018
106.377 27.9121 14.5982
107.417 27.6842 14.4763
104.905 27.0988 14.2808
108.705 28.1973 14.7361
103.424 27.7592 14.7311
105.369 27.0561 14.3338
106.758 27.4986 14.6237
104.506 27.2641 14.5892
103.771 27.8984 15.025
101.899 28.1703 15.4109
98.4468 26.1617 14.3007
101.084 26.4248 14.316
97.6853 27.2195 15.2978
100.976 26.7853 14.7736
97.858 25.3766 14.1823
98.3157 26.3261 14.8552
96.1477 26.4577 15.0494
94.3988 25.4116 14.4656
97.2456 26.5865 15.0147
96.8339 27.371 15.4636
90.6726 25.3688 14.6237
93.3921 26.4035 15.3196
91.4067 26.5145 15.4429
91.469 25.5048 14.8249
93.6399 26.5823 15.6377
90.1268 25.6258 15.3686
92.5236 26.0425 15.4275
91.5222 25.7825 15.1281
87.6862 24.8211 15.1751
85.6964 24.7657 14.8271
86.44 26.1962 16.1363
88.6433 25.2917 15.4459
87.1431 25.7423 15.7402
87.7421 25.4782 15.8697
87.9549 25.0082 15.4305
85.9596 24.9411 15.3503
81.938 24.8582 15.6474
82.7822 24.9426 15.723
85.738 25.0304 15.6877
81.8991 23.644 15.0389
81.0207 24.6115 15.758
80.7915 23.8971 15.3115
82.9481 25.6072 16.6778
79.8856 24.6711 15.9938
81.2354 24.8732 16.2099
79.4036 24.2415 15.8209
80.6289 24.1837 15.8079
78.5703 24.3151 16.2546
79.95 23.8701 16.0928
79.7885 24.7605 16.4978
76.9345 23.6441 15.9296
79.3851 23.8571 15.8149
73.1441 22.0888 15.2123
75.4186 23.2481 15.7691
76.0447 23.9105 16.1643
75.2348 23.3822 16.2757
78.4104 24.3871 16.631
75.9809 24.0838 16.7331
71.556 23.2001 16.2812
73.9393 23.3566 16.374
72.5361 24.0033 16.9181
73.7354 22.7754 16.0759
71.6415 22.5495 16.2622
73.4812 23.2155 16.3323
70.4118 23.5376 16.9284
72.1818 23.3849 16.9833
69.5756 22.3997 16.101
69.3688 22.2849 16.2619
71.287 22.7364 16.4934
71.0716 22.9709 16.7277
69.3699 23.9476 17.8601
69.6033 23.3404 17.4063
67.8246 21.9417 16.1817
69.6945 21.8596 16.3708
67.798 22.6416 17.0984
69.0377 22.3114 16.9184
65.1127 21.8215 16.5408
65.9771 22.8386 17.4432
67.3586 22.5893 17.5929
66.8139 22.3674 17.1211
65.188 21.2153 16.2487
64.152 22.3712 17.4018
63.6162 22.0621 17.1756
64.2557 21.6383 16.8952
64.2057 21.9985 16.9939
61.4058 21.8524 17.442
62.1262 21.4269 17.0926
64.5813 22.466 17.6424
63.4875 22.2159 17.8873
63.3664 20.9904 16.9677
62.5091 21.6168 17.5241
61.8305 21.6739 17.5081
61.4394 21.3211 17.2805
59.5191 21.3297 17.4545
61.0984 21.5477 17.4199
57.0109 19.8586 16.5195
57.2781 20.2159 17.0137
58.9905 21.1547 17.3649
57.0558 19.8783 16.7823
59.4175 21.8276 18.2736
58.9497 21.0724 17.7032
58.6252 21.5563 18.2065
56.9509 20.2194 17.2563
57.6529 19.8572 17.0766
57.0497 20.578 17.2727
55.4856 20.1934 17.5359
56.2552 19.8078 16.9943
55.8636 20.3673 17.6433
53.6829 20.1305 17.2682
55.5543 20.1073 17.6579
56.4779 20.4575 18.0741
54.3239 19.606 17.1937
54.2254 19.7544 17.2954
54.053 20.1802 17.9912
53.0075 19.7632 17.761
52.2013 19.1186 17.2345
53.19 19.9007 17.7776
52.3151 19.6612 17.7945
51.6229 19.5405 17.9412
54.1078 20.1155 18.0477
52.429 20.1388 18.5356
52.0346 19.1479 17.6403
55.2411 20.057 18.4482
51.0846 20.1854 18.6162
49.5736 18.6552 17.215
51.7342 19.6881 18.5708
50.7541 19.4263 18.1596
51.2324 19.8553 18.5094
49.3334 19.3027 18.4351
50.5799 19.4239 18.3213
49.9319 19.6531 18.4525
48.8782 19.0711 18.2007
49.4559 19.3824 18.7896
48.5586 18.3959 17.6446
48.4505 19.4035 18.6396
47.0428 17.97 17.4684
48.637 18.812 18.5238
48.6351 18.0893 17.5369
48.4337 18.8331 18.4981
49.2738 19.3691 18.8798
48.4203 18.9832 18.6041
46.3503 18.9494 18.9869
48.016 18.4995 18.4436
47.8882 19.4203 19.673
45.4369 18.5801 18.6564
46.6896 18.1672 17.8448
44.7069 17.5834 18.1677
44.7192 18.0258 18.5155
44.9001 17.9774 18.0563
43.667 17.4507 17.6117
43.8446 17.6342 18.2734
44.905 18.4224 19.1185
45.029 17.6307 17.9431
43.9769 18.1547 18.8799
44.7131 18.1199 19.0332
44.5694 17.6411 18.2898
44.9663 18.0274 18.5755
41.7966 16.8861 18.0334
44.4928 18.4451 19.3483
42.7394 17.2215 18.2438
43.7852 18.4429 19.4856
43.0419 17.4281 18.5087
42.3686 17.7841 18.9273
42.3504 17.9226 19.4307
42.0825 17.4243 18.7242
41.148 16.6235 18.4536
41.8327 17.7009 19.2196
42.1354 17.4959 19.0198
40.6902 17.7202 19.4563
42.0189 17.9211 19.4317
40.5804 17.4481 19.1589
40.4009 16.3159 18.2306
41.1965 17.2909 19.2907
40.307 16.5352 18.5313
41.0416 17.0003 18.8779
38.1253 17.067 19.1054
40.2601 17.0486 19.4596
38.1025 16.1233 18.3031
39.1673 17.0894 19.3347
38.8693 16.0671 18.2974
39.0227 16.5203 18.9904
38.264 16.0399 18.3535
38.5984 16.1313 18.497
37.6674 16.4822 19.275
38.7726 16.5157 18.9156
38.2117 16.114 19.1811
38.2778 16.8126 19.2253
38.0817 16.3693 19.3227
37.9962 15.7633 18.4975
37.7329 16.2294 19.1319
37.3287 16.7029 19.5982
36.9585 16.2581 19.3975
37.2195 16.3817 19.5122
36.8844 16.9355 19.9798
37.9052 16.3244 19.7434
37.1833 16.3128 19.4499
37.9087 16.6506 19.9826
37.3425 16.5252 20.311
36.3757 16.3256 19.7694
36.3255 16.4697 20.0853
36.576 16.1846 19.6635
35.75 15.9226 19.4871
36.1219 15.7975 19.4621
35.533 15.8853 19.3294
34.6436 15.5944 19.2502
34.5901 15.1758 19.1348
34.9462 15.8142 19.648
34.473 15.5366 19.2519
35.4557 16.6804 20.8822
34.3631 15.6781 19.7622
35.652 16.1867 20.6554
34.6716 15.3379 18.8306
33.8492 15.1944 19.8826
34.0586 15.1533 19.2533
34.3848 15.5389 19.5266
33.6988 15.2515 19.7581
33.3983 14.2167 18.4721
33.2247 14.6012 18.8536
33.4128 15.0113 19.4156
33.2722 15.1051 19.5316
33.1346 14.9031 19.6748
33.8125 15.5608 19.8058
32.9733 15.4148 20.309
32.7905 15.2733 20.269
33.8817 15.5723 20.4806
32.8185 14.8009 19.5846
32.1445 13.9345 18.4358
31.6598 14.6648 19.6217
32.8761 15.4511 20.3432
32.1007 15.7188 21.5297
31.6227 15.0497 19.8532
31.3816 14.4018 19.4861
31.7161 14.4402 19.6433
31.2805 14.4852 19.4407
30.9153 14.0333 19.024
31.0243 14.4222 19.8174
31.3869 14.8157 20.3401
30.8554 15.2842 21.1379
30.9472 14.7099 20.6285
30.688 14.2486 19.4594
30.6147 14.6589 20.0771
31.2232 14.4297 20.1329
30.8835 15.0141 20.717
31.1734 14.3941 19.8599
29.9382 13.6145 19.0011
30.2014 14.4607 20.4102
30.0589 14.7055 21.1704
30.5945 13.8951 19.1598
30.3637 14.5768 21.1883
29.6119 14.0327 20.0073
30.6571 14.2107 20.1323
29.5022 14.4749 20.6312
28.9372 14.0442 20.0449
29.5516 13.9776 20.4541
29.7483 13.845 19.8484
28.4738 13.1822 19.0595
28.8363 13.5651 19.8527
28.7486 13.8586 19.9292
28.6494 14.0502 20.7439
28.6482 13.9597 20.1719
27.7849 13.7184 20.7486
28.7287 13.3826 19.7188
27.9805 13.7212 20.3188
28.1664 13.2342 19.6192
28.8556 14.2536 21.0301
28.1301 13.3404 19.8212
27.9577 13.7037 20.667
27.8711 13.123 19.3774
27.7847 14.0702 21.0072
27.9547 13.7408 20.7695
27.6955 13.2028 19.6258
27.4887 13.7749 21.1699
27.5392 13.4521 20.1426
27.0895 13.3063 20.4974
26.8209 13.1337 20.334
27.0112 13.1673 20.3472
26.5284 13.1537 20.0506
26.9639 12.9387 19.952
27.4107 13.4895 20.8204
27.0508 13.4273 20.667
26.2295 12.3815 19.2525
26.5632 13.215 20.6251
25.9783 13.0101 20.1078
26.2019 12.6673 20.1112
26.0863 13.5338 21.4421
26.477 12.5663 19.8299
25.553 12.9418 20.9098
26.5851 12.9376 20.2102
26.4395 13.0843 20.5688
25.7438 12.5716 20.1632
25.8263 13.1892 21.0914
26.8224 12.9308 20.4112
25.508 12.8462 19.9848
24.3978 12.2236 19.6603
25.6251 12.6743 20.0896
24.4283 11.9383 19.4862
25.1046 12.091 19.7842
24.9175 13.0212 21.2618
25.3027 13.1613 21.4895
24.4712 12.0837 19.6075
24.5572 12.66 21.2622
25.6756 12.8423 20.8847
25.0146 12.6177 20.784
24.6239 12.6088 20.8617
24.579 12.4273 20.1718
23.947 12.2458 20.2825
24.9344 12.0698 20.325
24.5875 12.6388 20.8529
23.7188 11.8107 20.034
23.8659 12.253 20.7318
24.2308 12.2051 20.0166
23.5932 11.1342 19.0352
23.758 12.177 20.7721
23.9176 12.5719 21.3191
23.1326 12.3452 21.1092
23.8631 12.1704 20.5492
23.2155 11.7778 20.0785
23.0442 11.8737 20.3118
23.6143 12.2908 21.2838
23.1334 12.1807 21.3897
23.1653 11.825 20.0037
23.1548 11.5127 19.7922
23.0691 11.9856 21.2001
23.2661 11.7732 20.0572
23.1219 11.666 20.1461
23.087 12.1485 21.2679
22.312 11.5995 20.832
22.9449 12.0137 21.2053
23.1171 11.5927 20.2557
22.724 11.9076 20.9282
22.3785 11.3086 20.0904
22.7262 12.2133 21.3867
22.8413 12.1334 21.725
22.1562 11.3905 20.1184
22.0833 11.4971 20.8024
22.4647 12.106 21.2405
22.2619 11.3197 20.3702
21.8078 11.0277 19.8655
21.9095 11.2557 20.288
22.2401 11.2651 20.1146
21.5677 11.4682 20.591
21.6826 11.5442 21.1659
21.6025 11.0012 19.9608
21.4523 11.1581 20.585
21.2699 11.368 21.045
21.6677 10.9829 19.8325
21.0576 10.7418 19.651
21.5133 11.5594 20.9319
20.9688 11.0298 20.6067
21.4492 10.7972 19.7658
20.7577 10.8547 20.8968
21.8092 11.0749 20.4892
20.7421 10.8719 20.5222
21.2224 10.9565 20.4132
20.5172 11.2363 20.8428
21.2094 10.3604 20.0885
20.8788 11.0789 20.5569
21.4576 11.1094 20.1871
20.0735 11.0394 21.1452
19.9297 10.7729 20.4343
20.079 11.1519 21.4458
20.7597 10.9151 20.5154
20.5127 10.4555 20.2337
20.2604 10.7199 20.3442
20.0935 10.7795 20.5118
20.3947 11.0885 21.3526
19.8446 10.7295 20.768
20.4016 11.2316 21.85
20.3967 10.6886 20.2143
19.7334 10.3839 20.0765
19.9062 10.9101 21.2123
20.0336 10.5532 20.1312
19.8319 10.0808 20.0659
20.0176 10.9621 21.3151
19.292 10.5217 20.3953
19.4805 10.0829 19.9008
18.9963 10.3866 20.8243
19.5023 10.3981 20.5114
20.041 10.5796 20.4715
19.5115 10.4958 20.8882
19.9236 10.3679 20.1603
19.1955 10.0251 20.2572
19.413 9.58921 19.3214
18.8641 10.6728 21.2723
18.8773 10.0661 19.9315
19.0703 10.3375 20.8546
19.1992 10.3585 20.6761
19.0762 10.2524 20.7497
18.9325 10.2133 20.396
18.6433 9.71096 19.5585
18.6388 10.3924 21.513
19.0343 9.86593 19.7011
18.5376 10.0309 20.6711
18.323 9.56993 19.7954
19.0156 10.3493 20.3848
18.3955 9.71093 20.8684
18.9208 10.2637 20.6808
18.5551 9.81307 20.5913
18.6165 10.1651 20.893
18.4242 9.4556 19.9501
18.4565 9.63164 19.4615
17.9062 9.66021 20.5046
18.4065 9.82365 20.1846
17.8633 9.65004 20.5919
18.1622 10.0751 21.0392
18.0608 9.93218 20.4902
18.2217 9.81896 20.6544
18.0172 9.90915 19.9298
17.8517 9.68997 20.984
18.0244 9.77714 20.3648
17.8744 9.89711 20.7677
17.7644 10.0148 21.4139
18.2136 9.72126 20.7845
17.7047 9.86732 20.5054
17.4152 9.5275 20.6374
17.758 9.43521 20.2126
17.6273 9.68985 20.9338
17.6256 9.44613 19.907
17.3229 9.17605 20.047
17.4738 9.65979 20.6061
17.2222 9.06591 20.0579
17.2502 9.08004 19.6473
17.0778 9.61334 20.9542
17.5707 9.7907 21.4739
17.5663 9.56823 19.9945
16.7694 8.88187 19.599
16.8267 9.37375 20.14
17.0825 9.31685 20.855
16.8479 9.20564 20.1184
16.7164 9.27222 20.0852
16.6171 8.87809 19.5491
17.0445 9.72011 21.0741
16.7751 9.10798 20.1304
16.6948 8.7689 20.1889
16.9072 9.14951 20.46
16.5627 9.26475 20.8092
16.5696 9.10927 19.8343
16.6069 9.10342 20.4503
16.7439 8.80054 19.8976
16.669 9.54267 21.0867
15.9979 8.62287 20.0829
16.2767 9.22731 20.4403
16.614 8.90822 20.5999
16.7902 9.10948 20.384
16.5203 9.16855 20.5134
16.3333 8.86717 20.7312
16.5118 9.16481 20.0908
16.2717 8.98984 20.9636
16.7168 8.84538 19.8989
16.1735 8.98067 20.9697
16.4667 9.29492 20.7443
16.381 9.37076 20.8701
15.9844 8.8319 20.6772
16.2542 8.7618 19.8731
15.9322 9.01105 21.404
16.7021 8.98119 20.5414
16.1666 8.6366 20.0498
16.1862 8.86901 20.4496
15.6871 8.69356 20.4531
15.9834 8.73613 20.4205
15.8821 8.59707 19.8891
15.9399 8.665 20.3994
15.6025 8.82668 21.0937
16.0292 8.55734 19.9739
15.6521 8.50424 20.3407
15.8913 9.10921 20.6877
15.4107 8.27563 19.4661
15.0896 8.72223 19.9724
15.484 8.56773 20.0989
15.631 8.55189 20.4126
15.4403 8.43508 20.2014
15.3826 8.21166 19.6213
15.2783 8.77934 20.896
15.6643 8.33207 19.6809
15.7572 8.73937 21.5029
15.1093 8.50731 20.2312
15.0436 8.10838 19.871
15.3103 8.79079 20.8453
15.2571 8.58517 20.65
15.4013 8.52076 21.0049
15.0289 8.11095 19.5102
15.1162 8.4724 20.8205
15.0949 8.15972 19.6097
15.0093 8.25467 19.7588
14.9771 8.515 21.1232
15.0938 8.18877 19.8161
14.9112 8.2081 20.2741
14.8234 8.23491 19.6832
14.854 8.01391 19.8372
14.7193 7.96728 19.6657
14.6753 7.75622 19.4479
14.7773 8.16479 19.5347
14.678 8.11321 20.2963
14.6548 7.81577 19.1143
14.4527 8.22933 20.22
14.5393 8.21502 20.5724
14.7207 8.2781 20.2375
14.4319 8.04774 20.0513
14.4086 8.16013 20.3779
15.117 8.23155 20.595
14.5093 7.92268 20.7815
14.6742 8.00992 19.6295
14.405 8.17947 20.4116
14.3537 7.86622 19.7738
14.2756 7.97856 19.9502
14.4192 8.00873 20.4778
14.5815 8.02304 19.6656
14.2893 8.38107 21.1165
14.2172 7.94989 21.0876
14.2741 8.06446 19.6979
14.1649 8.13697 20.5917
14.2449 7.69869 20.0789
14.1703 8.07113 20.7651
13.8315 8.22834 20.3008
13.9104 7.65284 20.2608
14.1754 8.13298 20.6178
13.9414 7.90031 20.4776
14.047 7.90935 20.402
14.2286 8.04049 20.226
14.0956 7.8407 19.5554
13.646 7.71829 20.535
14.1646 7.94413 20.2173
13.5959 7.40564 20.1393
13.7998 7.6205 19.4909
13.6409 7.81369 20.9725
13.9414 8.33489 22.0689
14.4501 8.09812 20.1874
13.4197 7.82203 20.9122
14.1263 8.18085 21.3474
13.9281 7.86067 20.5907
13.7204 8.07232 20.7735
13.5539 7.65751 20.7414
14.0472 8.0287 20.5489
13.4054 7.8443 20.8612
13.602 7.61111 20.6025
13.7248 7.84016 20.9663
13.3963 7.78707 19.7727
13.4672 7.65099 20.4165
13.4731 7.56404 20.5498
13.2511 7.43383 19.7645
13.2721 7.79832 20.0913
13.1535 7.13043 18.957
13.3885 7.43451 19.997
13.0906 7.57802 20.5492
13.1884 7.43186 20.44
13.2366 7.09743 18.8444
13.1058 6.79924 18.9553
13.102 7.54721 19.8429
13.1661 7.13175 20.1718
13.2322 7.4633 20.0834
13.2227 7.39818 19.7171
12.8431 7.35125 19.9811
13.307 7.74306 20.5136
12.7147 7.05138 20.0261
13.2182 7.49944 19.8191
12.7231 7.10587 18.8142
13.001 7.41629 20.2028
13.0231 7.45866 20.1948
12.7601 7.03017 20.3186
13.1189 7.51938 20.1952
12.6738 6.9458 19.6144
13.3059 7.28948 20.0257
12.5571 6.95352 19.5008
12.836 7.25023 19.3588
12.793 7.16254 19.9124
13.063 7.28562 20.1286
12.5913 6.89112 19.5096
13.0492 7.37369 20.4558
12.7728 7.56304 20.5779
12.696 6.95285 19.729
12.6574 6.80236 19.0028
12.6775 7.17337 19.8015
12.8222 7.25472 20.4939
12.8937 7.0575 19.4311
12.3662 7.22088 20.0957
12.4827 6.85056 19.5319
12.5132 7.08262 19.5702
12.5887 6.72513 19.2949
12.5522 6.99509 20.1875
12.5752 7.35479 20.5104
12.2345 6.88595 19.3963
12.595 6.92873 19.9573
12.4077 6.78169 19.4553
12.0935 6.81068 19.2977
12.469 6.70181 18.7054
12.3493 6.89044 19.3685
12.1105 6.65578 19.6916
12.1389 6.79267 19.4955
12.2587 6.4891 18.4927
12.0022 6.76793 20.4281
12.4506 6.71543 18.5788
12.0146 6.81062 19.4569
12.1381 6.59898 19.3472
12.0918 6.77911 19.5627
12.4394 6.7933 19.3714
11.8992 6.44004 19.137
12.0653 6.61519 18.8111
11.9803 6.83366 19.1851
12.1266 6.76262 19.4767
12.141 6.58469 19.3012
11.8076 6.45198 18.8641
11.8967 6.72556 19.1608
11.6448 6.31463 18.3448
11.8121 6.55771 18.5964
11.7709 6.33879 19.0914
11.973 6.58135 19.259
11.835 6.52315 19.5926
11.9141 6.52354 19.444
12.0116 6.5425 19.1845
11.7316 6.45767 18.8275
11.7741 6.43712 18.5742
11.7824 6.66226 19.9334
11.568 6.85731 20.7811
11.9484 6.63426 18.5152
11.5469 6.62172 20.0559
11.8213 6.17427 18.2371
11.4036 6.17749 18.2022
11.7182 6.39495 19.3282
11.6738 6.59906 19.0011
11.5833 6.43425 19.6236
11.7424 6.09482 18.8927
11.5472 6.41841 18.7447
11.5117 6.22068 18.811
11.4369 6.55311 19.1761
11.5847 6.31246 18.8913
11.3816 6.36892 19.2501
11.6348 6.25631 19.1309
11.6588 6.10646 18.3056
11.6642 6.38033 18.7492
11.3296 6.36026 19.6422
11.3078 6.45907 18.8575
11.2679 6.27102 19.6297
11.3813 6.58948 19.5221
11.2733 6.17712 19.5002
11.3222 6.29054 19.4019
11.2742 6.2629 18.5173
11.1089 6.13223 18.6205
11.4727 6.31278 18.8078
11.1779 6.11404 19.2297
11.2756 6.10363 18.2622
11.0628 6.06169 19.4357
11.1875 6.19646 18.325
11.1063 6.12481 18.2231
10.9632 6.07653 18.3516
11.1084 5.99091 18.5171
11.1515 5.89842 18.2574
11.2744 5.87111 17.9639
11.1029 6.03953 18.9285
11.0114 6.17446 18.805
11.0905 5.88211 18.8421
11.0025 5.90214 18.2486
11.2312 5.95035 18.4035
10.8614 6.12402 19.5045
11.0547 6.17798 19.2493
10.8735 6.20069 18.8899
11.3328 6.21428 19.2473
10.6859 5.9264 18.2535
10.9641 5.78923 18.5715
10.8079 6.04272 18.0524
10.8407 6.13305 19.5643
11.1447 6.08229 19.7584
10.8534 6.05511 18.3584
10.7964 5.70859 18.3249
11.0367 5.84568 18.0074
10.686 5.91682 18.5981
11.0088 5.89924 18.9153
10.9318 5.95493 18.3273
10.7245 5.8822 18.6896
10.8113 5.98534 19.549
10.8188 6.09218 18.9456
10.7284 5.97109 18.7733
10.8116 5.971 18.6915
10.5224 5.67463 18.2702
10.3907 5.72795 18.7145
10.6356 5.92113 18.7017
10.8345 5.61286 17.3141
10.3985 5.71179 18.2166
10.3951 5.80215 19.1714
10.6467 5.83282 18.7272
10.4077 5.69123 18.1816
10.6535 5.8877 18.6543
10.6361 6.01263 19.5995
10.7657 5.64601 18.5602
10.4766 5.81703 18.384
10.466 6.19032 19.5335
10.6331 5.76095 18.4713
10.3657 5.60531 17.8776
10.5308 5.71776 18.2172
10.3423 5.60875 18.6138
10.4004 5.81512 19.3815
10.4692 5.62913 17.9399
10.4732 5.83414 19.5054
10.7009 5.90998 18.9304
10.5023 5.80629 18.3692
10.3687 5.62487 17.6254
10.377 5.45949 18.5312
10.5035 5.56712 18.1639
10.4813 5.53584 18.525
10.2514 6.03714 19.3595
10.2433 5.49227 18.1353
10.4155 5.76394 18.106
10.2196 5.59028 18.413
10.3358 5.51358 18.0656
10.3454 5.742 19.0414
10.4416 5.53993 18.1268
10.4242 5.68292 18.3019
10.2383 5.38045 18.5045
10.2762 5.71449 18.0815
10.1826 5.58479 17.9928
10.0392 5.381 17.8974
10.0404 5.46387 18.2535
10.0807 5.52156 18.2017
10.2804 5.47452 18.6696
10.1175 5.8103 19.1538
10.3728 5.52038 18.0002
10.2658 5.2936 17.8226
10.0462 5.34323 18.0043
10.1711 5.555 18.3517
10.2103 5.65418 18.5921
9.94135 5.49403 18.4466
10.0345 5.46672 18.3223
10.0246 5.2983 17.6514
10.0648 5.3904 17.6182
9.981 5.56142 18.3382
10.1931 5.2795 17.8909
10.1134 5.441 18.3057
10.0367 5.40713 18.8709
10.207 5.41148 17.3817
9.74039 5.26658 18.1853
10.1315 5.51928 18.1169
9.92801 5.39514 17.9009
9.90563 5.33999 17.9129
9.78375 5.24004 18.0565
9.89782 5.16137 17.3191
9.93108 5.49637 18.3566
9.8828 5.46798 18.8755
9.91692 5.22718 17.5795
9.82808 5.18954 17.6117
9.85546 5.4049 18.612
9.90661 5.38984 18.3679
10.0104 5.58228 18.3982
9.73236 5.10579 17.5756
9.79616 5.23593 17.967
9.70988 5.22872 17.9021
9.7013 5.07762 18.0036
10.0039 5.56945 18.1405
9.87966 5.06218 18.3643
10.0431 5.40183 17.9352
9.5721 5.2086 18.2848
9.72281 5.41863 18.8262
9.70846 5.33862 17.7637
9.815 5.21694 18.0704
9.67712 5.4471 18.7108
9.70737 5.18563 18.4771
9.85951 5.21728 18.1392
9.70237 5.21571 17.0157
9.68002 5.18185 18.3121
9.68443 5.3551 17.8881
9.58545 5.11916 17.5627
9.27478 5.18044 18.1008
9.67822 5.33105 18.8804
9.79458 5.34125 18.0585
9.58773 5.38174 18.3923
9.6583 5.02801 17.8894
9.46167 5.09313 17.4532
9.58502 5.10818 17.3988
9.55912 4.92941 17.5428
9.65137 5.27363 18.3414
9.50857 5.01338 17.9173
9.54808 5.19475 17.9387
9.36209 5.00147 17.918
9.39102 5.23916 17.7857
9.38423 5.10866 18.2701
9.6425 5.28111 18.316
9.33213 4.92749 17.2156
9.3693 5.08033 17.7057
9.45503 5.11377 17.6626
9.26913 5.00687 17.2684
9.49698 5.12955 17.8521
9.15821 5.23251 18.7515
9.62172 4.87973 17.6987
9.44142 5.13805 17.9952
9.65367 5.35188 18.8979
9.43812 5.13115 17.4191
9.48744 5.11212 18.3895
9.30543 4.80916 16.852
9.38503 5.1332 18.2496
9.39775 4.86243 17.931
9.5467 5.18916 18.0635
9.38304 4.81779 16.9531
9.32874 4.97298 17.4734
9.09658 4.63756 16.5079
9.21128 4.70322 17.6322
9.20754 4.99637 17.4419
9.29872 5.02546 17.49
9.30664 4.97875 17.6084
9.38154 5.09903 18.3314
9.18428 4.85906 17.797
9.37559 4.93354 17.7862
9.27761 5.02415 17.8063
9.18494 5.0807 17.6127
9.16917 4.87485 17.7743
9.20753 4.87028 17.4186
9.14793 5.1399 18.2758
9.27565 5.05561 17.8507
9.16368 4.98 18.0208
9.37212 4.96128 19.1952
9.40598 5.17135 17.7157
9.21358 4.97444 18.2435
9.23574 4.99919 18.404
9.17354 5.07813 17.7433
9.06433 5.14531 18.9359
9.3217 5.52616 19.9533
9.30291 5.60476 20.2428
9.53736 5.41857 17.886
9.07568 5.02163 19.3704
9.52448 5.32883 19.4154
9.27716 5.42062 19.5379
9.05245 5.17529 18.5592
9.29693 5.26654 18.6946
9.17144 5.27762 18.911
9.08625 4.93528 18.0975
9.0647 4.96717 18.0205
9.06733 4.61982 17.6657
9.01421 4.77469 16.9859
8.93606 4.87026 17.4624
9.13395 5.03771 18.2258
9.12791 5.02546 17.7757
9.01332 4.70188 17.1002
8.88917 4.77855 16.9261
9.09798 4.65704 17.8137
8.88877 4.64861 16.9804
8.91709 4.77151 17.6766
9.06131 4.84043 17.5019
9.06606 4.78161 17.0735
8.94844 4.74273 18.1876
8.83098 4.92771 17.07
8.97444 4.80123 18.1517
8.87316 4.79347 17.611
9.07921 4.86771 17.995
8.78339 4.75021 16.9513
8.9689 4.63669 16.8738
8.94106 4.44421 16.3355
8.8698 4.65872 17.3227
8.86861 4.70875 17.7803
9.04428 4.84521 17.5445
8.84618 4.42701 16.3379
8.81487 4.7103 17.2386
8.92152 4.82868 17.6205
8.94336 4.63175 17.6814
8.91206 4.82216 18.0734
8.92947 4.80473 17.4253
8.87109 4.70928 17.2673
8.88562 4.56086 16.8183
8.80555 4.73174 17.5366
8.58954 4.26631 16.6405
8.7178 4.74945 17.2169
8.89798 4.55847 17.0814
8.88252 4.63151 16.952
8.92639 4.53309 17.2133
8.8715 4.61549 16.7677
8.72448 4.56195 17.317
8.76352 4.46258 16.6512
8.67727 4.6394 18.1803
9.00743 4.90938 17.9167
8.81532 4.75047 16.9049
8.73936 4.4625 16.9261
8.74724 4.71008 17.3959
8.77623 4.51 17.2435
8.96378 4.59181 17.1352
8.83517 4.54466 17.54
8.84382 4.48773 16.2486
8.60552 4.46073 17.1027
8.56454 4.476 16.2758
8.43107 4.50526 16.834
8.84753 4.59638 17.3278
8.61181 4.43125 16.3992
8.78841 4.41171 16.222
8.68295 4.42314 16.9016
8.76708 4.50257 17.5982
8.7779 4.42234 16.2023
8.74449 4.37553 16.5819
8.64649 4.33407 16.1004
8.70103 4.46735 17.1891
8.80751 4.54458 16.6467
8.64389 4.44078 16.9606
8.76057 4.4942 17.2333
8.68185 4.57909 17.2458
8.70764 4.53471 16.9185
8.88371 4.67445 17.8547
8.61714 4.59701 16.7769
8.48776 4.5017 17.0583
8.68073 4.4689 16.9849
8.59878 4.5148 16.7466
8.57314 4.56361 17.2409
8.72137 4.51755 16.8062
8.58438 4.29657 16.107
8.40372 4.34211 16.6933
8.46321 4.20697 16.6446
8.60638 4.58842 17.3043
8.75532 4.4861 17.3268
8.60299 4.32883 16.0357
8.53513 4.42049 17.1011
8.57265 4.33479 16.5382
8.5257 4.28942 16.5045
8.36444 4.34301 16.4843
8.56499 4.42723 16.8873
8.72039 4.26441 16.5402
8.48991 4.27407 16.7706
8.55361 4.44659 17.2397
8.63964 4.54923 16.7572
8.57145 4.53501 17.067
8.50677 4.38645 17.2255
8.75917 4.57334 16.995
8.54543 4.4587 17.5665
8.55813 4.55772 16.6617
8.55171 4.449 17.2088
8.31671 4.49047 17.2977
8.54565 4.84625 17.5676
8.57905 4.19912 16.3626
8.43606 4.22317 16.2327
8.53664 4.35261 17.1614
8.51678 4.186 16.7247
8.50478 4.12959 15.572
8.42369 4.42291 16.6497
8.53204 4.32879 16.811
8.41878 4.22376 16.0309
8.45875 4.0259 15.9779
8.4847 4.32919 16.1399
8.43316 4.49623 17.2129
8.46633 4.41118 17.3276
8.47817 4.43867 16.5555
8.38271 4.31444 16.8843
8.38049 4.31811 16.5627
8.34095 4.27534 16.8323
8.30575 4.2518 16.9835
8.50206 4.57784 16.7387
8.33189 4.22704 16.8255
8.52888 4.3183 16.5483
8.49492 4.24119 16.8942
8.45616 4.2654 16.224
8.28663 4.21495 16.44
8.30705 4.38644 17.1145
8.31297 4.38217 17.244
8.30226 4.24394 15.8391
8.3576 4.18274 16.3341
8.36931 4.28543 16.8566
8.37142 4.10642 16.3688
8.35221 4.14288 16.1094
8.32245 4.40901 16.6817
8.32544 4.19539 15.8971
8.41304 4.419 17.0873
8.31915 4.0957 15.4477
8.37704 4.11411 16.8108
8.3449 4.18605 17.6601
8.40009 4.47134 16.2598
8.07586 4.24735 15.7089
8.41313 4.10286 16.3282
8.19234 4.17868 16.6113
8.29391 4.31027 16.8538
8.32615 4.23678 16.1919
8.32226 4.22875 16.2026
8.48084 4.22004 16.1833
8.42622 4.06611 15.7039
8.31647 4.12289 16.4302
8.29815 4.27111 16.5401
8.47815 4.22851 16.7199
8.20476 4.24715 16.0968
8.38604 4.09846 16.3613
8.23623 4.19429 16.5822
8.3704 4.29339 15.64
8.20894 4.08827 16.2515
8.24643 4.28338 17.0587
8.38568 4.28351 16.1614
8.26122 3.92433 15.8559
8.24606 4.2586 16.8943
8.35446 4.1646 16.4214
8.38534 4.15672 16.5194
8.41227 4.31262 17.1614
8.23731 4.2745 15.865
8.20312 4.11048 16.1339
8.25186 4.00505 16.2139
8.21678 4.15055 16.2279
8.39569 4.24857 16.4853
8.1619 4.13661 16.6203
8.39851 4.17408 16.2681
8.09805 4.01036 15.9546
8.26156 4.12791 16.5248
8.23598 4.3092 15.9643
8.1598 4.11429 16.7004
8.31635 4.12663 16.0187
8.28718 3.94333 15.0693
8.18159 4.15728 16.3678
8.14041 4.10585 16.2172
7.961 4.15474 16.2314
8.21061 4.14776 16.2536
8.13412 4.15948 16.1731
8.25029 4.13544 17.0741
8.27714 4.16002 16.2333
8.18499 4.14309 16.4046
8.21983 4.17121 16.5293
8.16735 4.11631 16.0126
8.24539 4.35713 16.8965
8.05738 4.13221 16.3274
8.13028 4.32393 16.7147
8.09754 4.15923 16.4696
8.27576 4.15838 16.4001
8.29311 4.10479 16.5017
8.24485 4.15001 16.4692
8.15219 4.17315 16.0479
8.19763 4.08053 16.6574
8.12808 4.06107 16.7241
8.32753 4.2576 15.749
8.13202 4.18575 16.2375
8.03509 3.96745 16.3707
8.09661 4.07222 15.6936
8.12756 4.13191 16.3848
8.08654 4.17405 16.3756
8.30088 3.94674 15.7802
8.00054 4.02454 15.9098
8.06801 3.93567 16.3267
8.26309 4.28324 16.2923
8.12103 4.00071 16.5895
8.13015 4.1668 17.0137
8.17765 4.26778 16.8009
8.11168 4.16426 15.9598
8.13368 4.10074 16.4251
8.15521 4.12376 16.4761
8.19473 4.27816 16.8913
8.16877 4.26928 17.165
8.2735 4.31787 17.259
8.18335 4.07981 16.3258
8.20744 4.29837 16.2924
8.19243 4.08344 16.6493
8.22078 3.93935 15.4779
8.13197 4.00778 16.0752
8.10292 4.07779 16.5804
8.22139 4.24507 16.3547
8.28188 4.08087 16.767
8.20834 4.08018 15.9941
8.1148 3.92999 15.5873
7.99883 3.89274 15.7999
8.07641 4.02377 16.1779
8.21362 4.07367 16.4493
8.17143 4.24618 16.4103
8.10732 3.95583 15.4733
7.98961 4.01285 15.5669
7.97609 4.11803 17.3437
8.28162 4.185 16.5871
8.23612 4.13588 15.6835
8.06968 4.02118 16.6563
8.0199 4.18471 16.1949
8.13008 3.90005 15.8181
7.89964 3.90627 15.6024
7.99765 3.92142 15.8011
8.03688 4.12899 16.3034
8.04337 3.86925 16.2612
8.32568 4.14115 16.0852
8.15406 4.2262 16.1364
8.06535 4.14736 16.4644
8.21389 4.14731 16.3987
8.14735 4.01162 15.7712
8.09717 4.12674 16.2219
8.09522 3.92595 15.7439
7.95456 4.06224 16.9635
8.20129 4.15902 16.2681
8.01905 4.20429 16.7066
8.08445 4.05427 15.9306
8.10308 3.87201 15.9876
8.14941 4.03344 16.4002
8.1133 3.95275 15.6541
8.06807 4.07745 16.2619
8.27238 4.10876 15.8596
8.08557 3.95649 16.3618
8.06608 4.26703 16.6201
7.97652 4.07117 16.0406
8.10458 3.92342 15.9593
8.02624 4.03931 15.8005
8.09849 4.01138 16.1308
7.87808 4.06231 16.6482
8.11777 4.16179 16.3663
7.89042 4.15854 16.4734
8.20296 4.09624 16.8274
8.13772 4.16084 16.5485
8.12563 4.20352 16.1565
8.01818 4.242 16.569
8.23495 3.8482 16.4279
8.05031 4.38615 17.138
8.23953 4.27027 17.2983
8.18603 4.15625 15.7193
8.09574 4.09084 17.3132
7.99553 4.23806 17.0843
8.17695 4.35451 17.4354
8.00805 4.3516 17.2699
8.16497 4.28147 16.4401
8.10856 4.26811 17.5182
8.14129 4.4748 17.0343
8.14563 4.2511 17.7618
8.2706 4.34231 18.246
8.1861 4.49623 18.716
8.25932 4.70875 18.6881
8.14886 4.87641 18.8244
8.42598 4.46477 17.0041
8.12049 0 0