# pn-170911/CsII-15-USN3-1280-1959.psd
# Power spectrum* (dif=0,1,2) (really just |FT|^2)
# NOTE: only the first half! (symmetric)
# weeks: 1280-1959
# 505 clock-days, 222 excluded
# PSD: 1441
76526.8 3.56873 0.0296284
2.61814e+06 41.5622 0.0160227
1.52963e+07 304.901 0.021075
2.37072e+06 94.3699 0.0196596
1.73612e+06 118.826 0.0246369
856536 90.0536 0.025112
582763 85.3253 0.0310601
479227 93.8913 0.0364512
334680 88.9565 0.0405268
243498 81.16 0.0482722
214205 85.7593 0.0546581
187646 90.3849 0.0679779
141955 84.0466 0.0720756
125732 86.7535 0.0803128
114684 86.0592 0.0963301
96685.1 88.041 0.110282
86836.5 92.0249 0.125873
78258.5 90.4578 0.1402
72100.4 94.179 0.160983
55790.6 79.53 0.150881
53443.9 83.9349 0.174166
47023.9 85.0303 0.198638
43368.3 81.9419 0.202706
39717.9 81.7806 0.222486
36067 86.3448 0.251478
33707.4 83.7377 0.270317
33474.1 89.612 0.303098
29297.8 83.6564 0.302888
28716.3 91.1795 0.350879
25186 84.1134 0.34762
24396.6 85.2117 0.379518
23375.9 89.6105 0.424349
21807 88.7486 0.445192
20061 89.4584 0.467782
17554.9 79.6282 0.457394
16486 81.7185 0.495575
16382.5 86.2363 0.543291
15833.4 85.0064 0.556695
13959.8 79.0264 0.558485
14738.1 86.8765 0.643615
14430.2 85.4761 0.656506
13121.4 86.5699 0.714773
11787.4 80.4007 0.696378
11396.2 83.8332 0.745025
10960.3 83.5802 0.771551
11093 88.7935 0.879115
10293.9 87.2657 0.882614
9435.51 80.5042 0.864702
9392.46 85.8602 0.954625
8585.05 80.9701 0.920537
8308.61 84.7778 1.01893
8338.78 84.1956 1.05634
7441.36 81.4824 1.05641
7142.91 83.2192 1.12099
6638.77 78.0051 1.08468
6450.3 77.5868 1.12645
6156.07 77.1239 1.15996
6474.89 86.2868 1.35065
5777.69 74.7814 1.20799
5475.47 77.3198 1.2895
5882.53 84.853 1.47367
5549.7 82.0356 1.46325
5179.66 76.6087 1.42385
5196.96 83.1908 1.58182
5216.35 82.5926 1.60622
4523.01 73.2559 1.47875
4644.53 81.8126 1.70573
4453.78 77.8956 1.68404
4302.11 75.6168 1.67139
4461.26 86.2008 1.9728
4216.9 77.9275 1.82212
4114.26 80.81 1.96022
3662.11 75.8312 1.85241
4008.96 86.287 2.17901
3869.36 78.8792 2.05725
3488.48 77.4776 2.08856
3608.79 80.2384 2.207
3220.95 75.6157 2.14393
3327.47 77.2368 2.23736
3191.62 77.4342 2.32766
3055.31 74.0644 2.26663
3264.18 84.1562 2.62663
2718.45 70.6782 2.28272
2844.06 75.9013 2.49858
2837.49 77.0891 2.60022
2798.92 77.2003 2.64715
2420.73 67.4891 2.38454
2595.54 79.3193 2.8649
2500.79 74.0657 2.74817
2463.53 76.077 2.89115
2444.45 72.9849 2.84858
2261.02 71.9423 2.80955
2285.31 74.0282 2.95926
2254.55 76.2275 3.1786
2245.73 79.0304 3.33583
2059.19 72.0129 3.09687
2126.31 73.2942 3.23981
1996 71.9121 3.20145
1900.69 71.1579 3.29829
2030.68 76.8732 3.59024
1839.99 70.0261 3.33195
1889.73 75.1565 3.64068
1776.75 71.3905 3.54145
1732.06 71.1039 3.56058
1630.58 66.186 3.39229
1656.51 70.5785 3.71541
1782.48 72.8434 3.87803
1534.25 67.2196 3.64892
1686.4 72.2213 4.00296
1455.9 69.384 3.90936
1598.28 73.4399 4.24883
1492.57 69.2782 4.0671
1507.12 73.5939 4.38641
1465.23 69.9233 4.25466
1420.85 70.721 4.31432
1344.7 66.0216 4.15952
1303.35 66.871 4.27298
1255.98 66.9457 4.34164
1253.34 61.4969 4.10682
1291.14 67.6189 4.51255
1259.71 69.5285 4.75164
1189.62 66.7394 4.64556
1177.32 67.2749 4.76196
1163.22 64.9568 4.65664
1103.45 63.2879 4.58201
1083.03 61.6919 4.58966
985.022 60.4335 4.49604
1136.75 70.6956 5.4118
1040.31 65.4187 5.0749
991.458 64.143 5.10206
896.501 58.1342 4.67553
957.741 65.1348 5.29308
987.77 66.1507 5.51613
995.259 66.0544 5.48928
960.478 63.2448 5.36905
940.049 63.3179 5.48213
931.96 65.2468 5.67503
901.316 62.9393 5.55904
942.968 65.0802 5.89463
875.266 61.9701 5.63112
863.606 60.6126 5.6161
816.766 59.8539 5.64141
822.359 64.1956 6.13573
838.865 60.5356 5.83868
767.203 58.5802 5.74332
777.057 60.9479 6.04971
772.787 60.4761 6.09822
810.253 62.8863 6.40397
819.121 68.6135 7.08031
726.835 62.7971 6.57474
698.623 58.97 6.24322
671.048 55.4067 6.01165
734.551 61.598 6.67687
685.793 58.8825 6.48142
633.487 56.5361 6.28024
683.291 58.1982 6.64863
647.51 59.0019 6.70285
577.299 54.8155 6.39337
615.496 59.5699 7.01071
670.99 64.5332 7.69289
568.266 55.9343 6.82871
606.557 56.5089 6.86794
565.654 56.755 7.04397
598.748 56.2182 6.99281
579.497 54.811 6.99562
559.116 53.865 6.9683
559.55 56.2704 7.24444
573.901 55.1029 7.29254
554.347 54.5367 7.28258
563.227 58.7441 7.8863
539.805 55.98 7.62511
498.792 52.8941 7.25325
489.309 51.7538 7.1344
502.654 53.1565 7.48382
493.491 54.1169 7.73593
527.767 58.5807 8.43013
477.299 50.6017 7.37911
495.336 54.1395 8.12382
470.808 54.1372 8.08633
442.178 51.9268 7.82874
469.189 53.4407 8.15761
448.693 51.0202 7.88853
439.893 50.0478 7.71518
425.716 51.1504 7.97931
422.916 52.1613 8.2507
436.69 52.451 8.3372
401.786 51.6431 8.51738
392.35 48.9208 8.06006
429.876 52.6652 8.58209
413.426 51.5765 8.67031
402.811 50.8747 8.60597
399.253 51.639 8.95497
403.757 52.8023 9.19006
385.685 49.8112 8.66266
366.969 48.5887 8.4986
376.694 48.1854 8.67148
383.139 51.534 9.23892
351.908 47.7045 8.60157
346.695 49.0951 8.90147
328.038 44.1438 8.31077
330.235 45.1219 8.37704
351.408 48.7834 9.19622
355.442 48.9087 9.3979
334.125 46.6076 8.89904
323.521 45.4454 8.82594
314.282 43.2561 8.62023
338.211 46.883 9.27181
313.134 45.8723 9.22488
321.216 46.965 9.43201
310.152 44.045 9.07116
294.279 42.7178 8.78502
298.51 43.6474 9.10524
280.523 46.9011 9.88515
287.298 43.7924 9.3201
266.579 43.3917 9.30143
288.075 45.5269 9.76919
280.673 43.5891 9.47643
292.423 43.0746 9.4883
272.103 43.4345 9.63866
271.51 45.291 10.1461
272.473 43.1572 9.70634
255.937 43.198 9.80699
261 43.037 9.85062
261.335 42.8836 10.0455
252.953 44.1532 10.4126
263.654 44.4521 10.5148
247.848 40.641 9.68476
233.207 40.889 9.87406
243.62 40.6287 9.79825
246.27 44.7332 11.0378
228.886 41.1956 10.1588
225.803 39.8789 9.93259
218.842 38.3913 9.66692
230.893 41.7937 10.5841
224.213 40.4102 10.1851
226.138 41.412 10.7464
210.966 37.9579 9.84468
209.269 39.0853 10.3247
214.278 39.7292 10.4564
222.904 40.9421 10.969
198.773 38.4151 10.2737
215.646 41.1715 11.0665
212.403 40.0669 10.8597
198.552 37.4533 10.1062
213.858 42.2012 11.8734
200.336 40.3392 11.4598
187.593 37.7934 10.6115
193.454 39.2144 10.9302
186.556 36.5537 10.4814
212.834 38.9684 11.1632
194.823 39.3947 11.5133
198.573 38.7389 11.251
189.497 36.833 11.0553
169.924 35.7825 10.6899
186.819 38.2737 11.4797
178.883 39.0463 11.7924
185.113 37.4687 11.3859
188.891 39.5449 11.8337
185.91 39.6531 12.2293
164.959 35.8199 11.2109
181.921 41.9437 13.1704
184.087 38.3675 12.1437
160.247 35.9017 11.3205
158.778 35.7778 11.6763
161.624 35.3662 11.363
159.353 34.0568 11.0874
155.76 36.721 11.8652
153.425 34.6957 11.5085
154.884 33.8847 11.1708
159.569 36.7071 12.1585
158.944 33.8793 11.5088
141.364 33.4341 11.572
149.162 35.3263 11.9131
152.175 36.921 12.8803
153.359 36.4663 12.611
144.646 31.3162 10.967
136.363 32.8673 11.5238
152.079 35.6423 12.747
134.058 31.6173 11.4407
144.462 35.1198 12.3688
137.637 32.494 11.4979
130.729 32.5572 12.0618
134.888 32.3611 11.9025
136.538 33.2381 12.2395
130.837 30.9441 11.6582
144.705 34.5157 12.6052
124.465 30.2792 11.5106
135.581 33.953 12.6395
122.373 30.317 11.5572
124.384 31.5495 12.126
124.444 32.3296 12.4852
125.388 29.863 11.6799
130.869 32.3604 12.8211
123.409 31.6312 12.4095
116.829 30.1994 12.2656
127.877 34.6999 13.8006
116.132 31.0653 12.6049
115.287 29.2183 11.5035
115.543 30.3683 12.6154
124.062 33.0836 13.4879
113.548 30.3861 12.6788
109.101 29.8195 12.4307
110.588 29.6887 12.3678
115.5 32.5647 13.9469
109.182 29.3375 12.2977
110.045 30.5122 12.7517
104.522 31.2972 13.8198
118.447 29.6155 12.4075
98.9114 29.4606 12.7387
94.2822 26.6119 11.702
107.159 28.3139 12.3545
102.868 27.5306 12.2216
106.952 29.227 13.1529
101.229 30.805 13.8584
100.979 28.3786 12.8544
101.546 27.2261 12.2542
102.613 28.9838 13.3436
97.3099 29.5538 13.1512
97.5949 29.8995 14.0937
101.425 28.4187 13.3341
99.0711 29.0718 13.3781
88.4112 25.9333 12.1412
90.9472 25.8676 12.6117
93.7766 29.1447 13.6836
90.3264 27.0935 13.0238
90.5681 26.3064 12.6285
87.61 26.6306 12.7644
90.7661 27.5532 13.4799
84.9964 25.9023 12.9399
92.5166 27.6096 13.6111
91.4587 27.5458 13.5292
85.7814 27.8591 14.2925
85.7823 27.5927 13.4811
89.8841 29.7059 15.1555
88.0325 27.9644 14.2157
84.2776 26.3921 13.2894
83.7749 26.7764 13.7946
82.5515 25.4906 13.1916
80.45 24.9895 12.8277
81.7569 26.3902 13.671
75.4942 25.5341 13.6731
79.497 25.9659 13.5073
79.5985 23.4956 12.3896
78.1072 25.3943 13.4629
81.3551 27.2991 14.7131
81.2142 25.6815 13.9175
75.4778 24.5515 13.1982
81.2209 26.108 14.1994
72.2265 26.3402 14.3224
72.7234 24.1025 13.8351
76.7438 25.7109 14.1828
69.3326 25.3266 13.9239
72.7558 23.9081 13.5613
70.7159 23.0219 12.8421
71.3751 24.8918 14.1005
70.4409 23.6627 13.8619
69.9061 24.1892 13.8638
71.465 23.5854 13.1615
69.1071 24.6399 14.2126
71.5483 25.6773 14.7982
67.9514 21.9355 13.1134
69.4926 23.4428 13.8029
71.7353 24.116 14.2511
65.4738 22.7357 13.3222
65.4066 24.0432 14.5099
66.7866 22.8697 13.8468
67.2025 24.9143 14.9098
69.908 24.4558 14.7114
64.7642 24.2572 14.9483
63.9292 21.5521 13.2612
66.9321 23.2441 14.1916
59.6965 21.3221 13.2405
62.1683 21.8304 13.728
63.9269 22.199 13.972
62.4761 23.1389 14.4474
57.5266 21.9323 13.6522
61.5602 22.2526 14.5623
64.6321 23.4673 14.7093
56.4596 20.9238 13.5352
57.8657 21.4256 14.205
61.8934 22.2387 14.2475
55.173 20.4544 13.1668
62.3677 21.5587 14.0611
56.9541 21.8253 14.2099
63.2117 23.0462 15.4456
57.6526 22.8825 15.3566
60.5053 22.4217 14.9126
57.8609 20.987 14.0692
52.2737 19.8823 13.6582
55.2743 22.1825 15.2652
55.5779 22.0389 14.8558
54.0182 19.8457 13.5071
59.4781 22.082 14.9789
53.3504 20.1077 14.2941
55.0516 20.3825 14.0315
54.4203 22.2479 15.5963
51.8873 19.7042 14.0169
53.6834 19.9536 13.955
53.3866 22.2358 15.1433
51.3507 19.5285 14.2436
51.9832 19.9902 13.9614
52.6741 20.5504 15.0449
51.9957 21.2143 14.9625
51.8063 20.4022 14.9544
52.8191 21.658 15.3573
53.1072 20.5977 15.3625
50.9543 20.8461 15.3786
49.6531 19.9588 14.8982
52.0514 19.0705 13.7199
47.9313 19.78 14.9019
48.4381 18.7968 13.9434
48.0937 19.6529 14.6435
46.871 18.4769 14.2893
49.0104 19.7583 14.4836
49.6612 19.6321 14.8571
43.2758 18.571 14.5693
47.1619 20.7158 15.5638
46.8456 19.4765 15.1797
44.1371 16.132 12.6314
44.5896 18.8225 15.0018
45.5224 19.0398 15.1083
45.6308 17.6289 13.5573
43.6183 17.9788 14.0723
43.6895 18.1422 14.2838
44.6247 18.2994 14.5247
44.7977 18.3202 14.7743
43.4607 18.4428 15.0242
42.7136 18.3745 14.0667
41.6803 18.1835 15.0128
42.7324 18.5473 15.0037
42.0881 17.3601 14.2687
40.4114 16.0228 13.1452
42.7506 17.584 14.8517
42.5933 17.7945 14.6729
39.3115 17.0288 14.2201
40.6731 17.9401 14.4021
43.0336 18.3314 15.2985
40.4367 17.4097 14.7028
39.8531 17.4925 15.127
40.8851 18.151 14.9844
37.669 16.2724 14.2491
37.3789 16.4063 14.1681
41.4839 17.7743 15.2712
39.9412 17.5872 14.826
36.8396 17.5851 15.2956
36.7439 15.825 14.4299
40.5871 17.158 14.4495
38.0645 17.8837 16.1287
39.4368 17.6313 15.3224
38.3523 16.3191 14.3685
36.8049 17.2874 15.0071
35.6217 16.5711 15.033
39.244 16.8066 15.0808
34.2986 15.88 14.2146
36.2171 16.5347 15.1828
39.4169 18.043 16.4538
34.8326 16.4862 14.7797
35.4705 16.4696 14.83
34.5439 16.2706 15.2763
35.8263 16.2395 14.4195
36.2997 16.0396 14.9804
36.7208 15.2934 13.8186
35.2838 16.0582 14.6565
36.0426 15.9532 15.2664
35.7626 17.2029 16.4689
34.9022 15.8705 14.7914
33.617 16.083 15.8168
33.675 14.9547 14.2469
34.1992 15.4829 14.7749
34.0877 15.5265 14.8908
34.7159 15.8011 14.6205
35.1245 16.5826 15.7921
33.1313 16.0065 15.8271
33.6597 15.8472 15.5142
32.2799 15.4855 14.905
29.9699 14.1826 13.811
30.5151 14.9632 15.184
33.0152 15.7807 15.3731
31.9684 15.6751 15.021
31.2052 15.5194 16.1002
34.3504 15.8568 15.7884
31.2957 14.8517 14.7575
33.1753 15.2585 14.8465
31.702 14.6271 15.4302
30.533 14.7422 14.9018
29.1823 14.8164 15.5209
28.7014 13.4346 13.3814
31.8034 15.058 15.7759
30.3805 14.8773 15.4886
33.5419 16.1023 16.1141
29.6799 14.6929 15.17
29.6634 13.1895 13.6167
28.3593 14.2846 15.1319
27.5851 13.8075 14.8606
30.4178 14.4547 15.6338
29.1211 14.7376 15.0967
28.9042 15.2102 16.2542
29.7819 15.8415 16.2749
27.4322 13.3264 14.3251
27.4249 14.0482 15.2655
28.962 15.1876 16.2697
27.9794 14.2302 15.3129
28.3093 14.9576 16.5294
28.4328 13.8364 14.955
27.7581 13.4646 15.249
27.5062 14.0156 15.3899
28.4644 13.5263 14.641
28.2754 13.6512 14.5926
28.0388 14.3076 15.9319
28.8716 14.5219 16.0992
25.6192 13.5633 15.4052
27 14.5017 16.0339
28.3097 14.1926 15.792
28.669 14.1541 15.8528
27.085 14.4525 16.1574
26.2464 14.0104 16.1403
27.3411 14.4479 16.4115
25.3043 12.7199 14.3312
25.9248 13.5048 15.5283
25.1278 13.9644 15.9911
26.4581 13.2593 15.6522
25.7414 13.7585 15.4836
25.8034 12.8389 14.9879
24.0837 13.2234 15.3935
27.241 13.6793 16.06
25.4488 13.2579 15.4047
25.7025 12.7881 14.972
26.1456 12.411 14.524
25.2987 12.5968 14.8498
24.8382 14.2384 17.1926
25.6455 13.1579 15.9365
26.1603 14.1979 17.0628
25.2625 13.2853 15.7675
25.2328 12.9888 15.4963
25.3147 13.7691 16.7036
24.7358 11.7263 13.8243
23.4988 12.2556 15.3021
22.1215 12.3345 14.8246
23.3954 13.0556 15.9463
23.9308 12.997 16.0952
24.7419 13.3398 16.0613
24.2623 13.2893 16.4304
23.6079 11.8252 14.8371
22.6749 11.9373 14.7101
24.0495 12.5899 15.7711
23.1389 11.8923 15.4663
24.2441 12.7566 15.9551
23.5007 12.5689 15.3485
22.8931 12.5253 15.6572
22.4152 12.5882 16.0971
22.6028 12.9522 16.4895
23.2629 12.1729 16.1041
23.2686 11.9227 15.1789
21.8052 11.4489 15.0857
21.852 10.6241 13.893
21.4112 12.0312 15.4652
22.7759 12.4963 15.7048
22.4756 11.9087 15.5397
21.5393 11.8812 15.869
21.8633 12.1094 15.6849
23.3392 12.3108 15.8354
20.1246 10.8955 14.8793
21.9762 11.846 15.8055
23.3223 12.4222 15.762
21.7215 11.7428 16.4241
20.8797 11.2276 14.5677
20.8561 11.5669 15.4322
20.0745 10.8153 14.1064
20.3677 10.9309 15.0718
21.152 12.1084 16.533
19.8924 11.0545 14.6774
20.0892 11.9586 16.8263
21.757 11.2062 14.9097
20.2651 11.2782 15.4753
21.5898 10.9548 14.5145
20.6916 11.4981 15.8708
20.4251 11.7208 16.0838
20.8302 12.2871 17.0606
20.9323 10.9801 15.3022
18.917 10.3718 14.1335
19.5493 10.5466 14.9547
19.2932 11.4217 16.4379
20.9237 10.882 15.5469
19.5959 11.2636 15.882
18.8476 10.3155 15.0077
19.5409 11.9048 16.5418
19.5212 10.7895 15.3496
19.4285 10.1147 14.4225
20.055 11.0933 15.7632
19.6297 10.6059 15.2451
18.358 10.1161 14.479
18.1238 10.6759 15.6156
19.2184 10.9048 15.846
19.1627 11.262 15.6933
18.7786 11.0647 16.5136
19.2926 10.8968 15.6708
18.5344 10.4682 15.413
18.2271 10.5855 15.9008
18.0688 10.0931 14.8795
17.3756 10.1207 15.7852
18.7915 11.0264 15.5963
17.4642 10.6527 15.8833
17.4397 10.2916 15.5844
19.5471 10.59 15.8216
19.021 9.95194 15.3513
18.3001 10.674 15.4552
17.2792 10.3617 15.6907
19.2547 10.2203 15.3486
17.4727 9.73504 14.8322
17.6585 10.3259 16.0787
18.5448 11.3603 17.1531
19.0851 11.6623 17.2651
16.6932 9.81669 14.8042
17.0433 10.3999 15.9078
18.7607 10.3371 15.7818
16.8407 9.784 15.4205
17.1277 9.71827 15.0208
18.0131 10.5606 16.0443
16.4221 10.087 16.4908
17.6532 10.6619 16.5099
16.4975 9.42343 14.8542
16.1838 9.88125 16.2776
16.5487 9.52618 14.896
17.001 9.80698 15.1703
16.2822 10.0364 16.1468
17.1413 10.544 16.9889
16.9716 9.82347 15.1096
16.8945 9.6387 15.6711
17.0558 10.0702 15.9381
16.4505 10.6879 16.7174
16.4061 10.7093 16.9653
15.6538 9.76778 16.4831
16.4987 9.63992 15.1973
15.6284 9.62741 15.7926
15.8621 9.47012 15.0286
15.8818 9.31287 14.9975
16.0274 9.18502 15.6074
15.3342 9.51889 16.054
16.455 9.60017 16.0567
15.2807 9.62947 15.2378
16.2223 9.41098 15.4727
15.6786 9.90115 16.6177
15.5555 9.92991 16.4235
16.0949 8.95758 14.566
16.138 9.62235 16.335
15.763 9.56181 16.2414
14.7947 9.72511 15.9535
15.4654 9.72525 16.6821
15.8377 10.0383 16.8854
14.8808 9.5405 16.1102
15.4121 9.495 16.0516
15.0913 9.07358 14.6766
14.804 9.50167 16.0446
15.5378 9.51926 16.423
15.0883 9.41411 16.2734
15.4463 9.40936 16.767
15.0803 9.02754 14.7795
15.0285 9.40348 16.8908
13.4136 8.56705 14.8125
14.457 9.39921 15.942
14.1742 8.75637 15.1174
15.5385 9.49585 16.0592
13.9911 8.90537 15.6831
14.0575 8.77936 17.0476
15.9556 9.99749 15.9817
14.344 8.97233 15.6058
14.5468 9.09566 16.1694
15.0958 9.1153 16.0868
14.4355 8.98905 15.7006
14.0662 8.77594 15.6916
14.4394 8.77137 15.8789
15.0289 8.94461 15.7904
14.2835 9.19563 16.576
14.2702 8.72171 15.8579
14.4778 8.74424 15.3436
13.2602 8.99866 16.4345
14.2721 8.99417 16.2347
13.6148 8.72342 16.2916
14.0876 8.97788 16.2954
14.2576 9.29403 16.9451
13.7386 8.91905 15.8029
13.8624 9.04704 16.2846
12.8632 8.65119 16.7929
12.9582 8.60959 15.696
13.9387 9.1622 16.3844
14.1486 8.67897 15.973
13.2983 7.79178 15.4223
13.2538 8.60114 15.5845
13.8519 8.55221 16.0119
13.2614 8.56893 16.1015
13.5964 8.10991 14.8769
13.4593 8.82909 15.9181
13.8808 8.48148 15.9348
13.1172 8.44812 16.3121
13.4803 8.76431 15.8072
13.3294 8.80256 16.7626
13.4918 8.60595 16.4965
12.4738 7.84649 15.3683
13.5703 8.68185 16.0985
13.2855 8.44743 15.7766
13.3763 8.95844 16.932
12.3284 7.86488 16.0834
13.3056 7.88657 14.5074
13.3714 8.47917 16.0078
12.9834 7.52342 14.5741
12.1677 7.9122 15.4891
13.1902 9.06174 17.138
13.8178 8.40504 16.6931
13.2321 8.11214 15.7845
13.1342 8.33193 16.145
12.7773 8.39811 15.6033
12.9462 8.32419 16.1441
12.7071 8.23103 16.2074
12.6621 8.00629 16.2445
12.8394 8.32546 16.5983
12.3647 8.33998 16.1018
11.5308 7.90221 16.0761
13.1007 7.95789 15.6563
12.3102 8.16134 16.4036
12.6751 8.35334 16.4539
11.7161 7.96995 16.3165
12.3983 7.83961 16.174
12.5422 8.26245 16.5478
11.7995 8.17805 16.4555
12.7743 7.92541 16.4564
11.5021 7.77153 16.2834
12.2983 7.77932 15.9049
12.5555 8.7792 18.0803
12.0009 7.96307 15.5819
12.213 7.95142 16.5374
12.5574 8.34911 16.9249
12.1022 8.05415 16.1231
12.1507 8.01468 16.1775
11.4415 8.36434 16.8179
11.6969 7.51094 15.6105
12.3456 8.51337 17.356
12.6383 8.12331 17.1132
11.7386 7.76202 15.3801
11.3847 7.58795 16.4426
12.0674 8.12335 16.7548
11.8129 7.58796 15.5532
11.4346 7.86078 16.7216
12.133 8.00281 16.1011
11.2041 8.0062 17.309
11.6892 7.81581 16.0978
11.3927 8.61854 17.6876
11.2613 7.72448 16.9109
11.5298 7.38855 15.8431
11.3054 8.10927 16.6105
10.8782 7.3302 16.3271
11.5583 8.19798 17.367
11.4203 7.26802 15.4842
11.4063 7.85938 16.9746
11.9652 8.22366 17.078
11.4005 8.21392 16.8757
10.7329 6.99399 15.2164
10.8367 6.77968 15.1088
11.043 7.79923 16.3965
10.8659 7.40866 16.253
11.4567 7.53568 16.3202
10.7693 7.43102 16.3342
11.1334 6.98877 14.9431
10.8776 7.31858 15.8028
10.9567 7.26475 15.9258
10.9965 7.38093 15.8729
11.1917 7.33889 16.8171
11.0794 7.68365 15.9949
10.6365 6.46844 14.8796
10.8851 7.38184 16.3844
10.7883 7.4079 16.6109
10.7228 7.34059 15.9881
10.9321 6.8524 14.6961
10.572 6.876 15.8562
10.687 7.46698 16.7209
10.6964 7.1682 15.5857
10.3473 7.22918 17.2203
11.5776 7.45382 16.6219
11.2094 7.68622 16.7256
10.3214 7.41591 16.2597
10.4593 7.27571 16.3208
10.1255 7.69891 17.7512
10.6349 6.91073 15.848
10.41 7.0383 15.7421
10.6404 7.12083 15.8021
10.4482 6.69913 15.6539
10.5267 6.85691 15.3322
9.91143 6.75828 15.4929
10.1826 6.41983 15.0513
10.3636 6.90203 15.9165
10.7966 7.5287 17.5896
11.0324 7.80225 16.9058
9.89782 6.93456 16.4555
9.98171 6.59221 16.6116
10.8397 7.60773 16.9772
10.6046 7.34407 17.3568
9.76112 6.78103 15.4306
9.74563 7.13934 16.6921
10.0452 6.77716 15.9915
10.2227 7.00406 15.6592
10.3746 6.77191 16.1485
9.8411 6.3636 15.7829
9.76744 7.51101 17.7974
10.2959 7.03753 15.5824
9.75257 7.07653 16.8809
9.80312 6.95213 16.7865
10.0075 6.84098 16.3179
9.64726 7.16683 16.6304
9.9248 6.41294 14.6851
9.58523 7.04394 16.713
9.70536 7.23804 17.2465
10.0167 7.09325 16.5594
9.48186 6.65307 16.2017
9.57405 6.35189 15.5364
9.55894 6.52092 16.1713
10.0756 6.57533 16.1378
10.1026 6.86343 16.4397
9.89803 6.4812 15.4821
9.77944 6.57518 16.3864
10.3854 6.69231 16.001
9.0263 7.28564 17.8134
10.0133 6.69226 15.5183
9.69542 6.34724 15.6215
9.5417 6.80121 16.8278
10.2611 7.26027 17.5472
9.31831 6.54289 16.7342
9.11898 6.70406 16.1582
9.78834 6.86972 16.6871
9.98553 6.79287 16.5087
9.46424 6.65966 16.092
9.55018 6.28304 16.1652
9.50963 6.99685 17.2959
9.71572 7.13328 17.1205
9.42124 6.75897 17.4748
9.22377 6.52826 15.5953
9.5305 6.5739 16.8221
9.37814 6.9158 17.6274
9.3032 6.53419 16.0584
9.45013 6.66291 16.2595
9.38983 6.19359 15.5232
8.95825 7.03017 17.9874
9.02684 6.78995 16.5111
8.90673 6.871 16.5406
9.14851 6.36002 15.692
9.21284 6.76275 17.6603
9.24411 6.47723 16.5529
9.39648 6.62697 17.3207
9.42678 6.44188 15.7533
9.15775 6.33196 16.594
9.28585 6.72662 16.8598
9.41084 6.72674 17.0114
8.85457 6.57007 16.3559
9.20516 6.23701 16.116
9.22198 6.30276 17.4898
9.18417 6.40956 16.2362
8.75374 7.07958 18.3886
9.07517 6.32322 16.263
9.06115 6.88869 17.3781
8.62317 6.48899 16.2892
8.68387 6.45954 17.6633
8.55503 6.53952 17.1023
9.08016 6.54709 17.9597
9.06426 7.13709 18.8121
9.40627 6.99783 17.8972
9.16802 6.72293 17.2153
9.19954 6.91073 18.1339
8.75217 7.1507 18.7503
9.40001 7.23728 18.5066
9.29712 6.73165 17.061
8.71008 6.32243 16.9918
9.13153 6.87279 17.8549
8.46927 6.50801 17.3849
8.75205 6.50886 16.2861
8.36673 6.69453 18.3877
8.77127 6.63608 17.7445
8.64426 7.10331 18.199
8.51497 6.1037 16.4618
9.01434 6.57224 17.7553
8.60573 6.72867 18.1644
8.58354 6.22177 16.9403
8.3999 6.77393 17.9216
8.65185 7.17483 18.4789
8.39465 6.31359 18.0134
8.03189 6.02867 16.2208
9.04423 6.64212 17.6968
8.73694 6.84886 18.474
8.90686 6.33885 16.3452
8.41387 6.20351 17.3013
8.66699 6.22901 16.1261
8.38879 6.30704 16.801
8.47005 5.9739 16.7082
8.55399 6.48711 17.5293
8.84115 6.14383 16.3557
8.39823 6.3684 17.9896
8.19296 6.58486 17.8357
8.35834 6.31161 17.335
7.97864 6.1302 16.8236
7.72499 5.97307 15.7173
8.48212 6.10588 16.0785
7.9186 6.13126 17.4943
7.93258 5.96146 17.6421
8.3399 5.79929 15.2659
8.16424 6.41322 17.8084
8.15854 5.9237 16.672
8.14009 5.98026 16.2931
8.51112 5.68411 15.8552
8.28035 5.91288 16.4837
8.30521 6.13813 18.3195
8.52386 6.18381 15.9195
8.04916 6.14253 17.464
8.32782 5.86028 17.1599
8.30206 6.12164 17.3084
7.87339 6.14719 17.3139
8.43189 6.03888 16.2758
8.30203 6.17537 17.6815
8.37601 5.91401 16.7911
8.22423 6.51839 18.2838
7.92543 6.06561 16.3172
8.02679 5.74462 16.7337
7.89226 5.41076 16.114
8.23177 5.75488 16.4685
7.83764 5.57198 15.2549
7.67865 6.32193 18.5937
8.12869 6.31019 17.6809
8.085 6.04406 16.8916
7.91435 6.1566 17.2348
8.07036 6.00864 17.3528
7.72287 5.68569 15.8283
7.82752 6.11777 18.0265
7.83668 6.37147 17.7195
7.88658 5.45025 17.03
8.43879 6.23552 17.74
7.95909 5.83693 16.2064
7.51153 6.02647 16.8069
7.68138 5.64651 15.9166
7.68217 5.70159 17.2963
8.0044 6.48411 18.5986
7.33976 6.27676 17.9452
8.17158 6.31314 18.8398
8.1691 5.55513 15.6327
7.63155 5.72314 17.3699
7.60147 5.85684 17.1938
7.7686 6.13314 17.785
7.39462 5.80258 17.2653
8.31138 5.58183 16.479
7.93583 5.97405 17.6287
8.00469 6.01674 17.6966
7.54556 6.12445 17.8369
7.86709 5.90701 17.5367
7.2723 5.66042 18.1439
7.80755 6.19992 18.113
8.03864 6.2424 18.2396
7.23679 5.71458 18.3601
7.72599 5.8545 17.1073
7.74148 5.78444 16.4873
7.55852 5.52676 16.7728
7.55204 5.85168 17.6198
7.28475 5.94263 16.7306
7.69089 5.28043 16.7405
7.61648 6.29794 18.0605
7.34774 5.74875 17.6549
7.4471 5.89269 16.3311
7.24744 5.94196 17.9693
7.64511 5.78917 17.2868
7.62702 5.99546 17.7812
7.09326 5.73918 16.4004
7.36461 5.65493 17.7137
7.25626 6.23587 18.7435
7.71507 5.41136 16.7042
7.18178 5.74823 17.5502
7.31669 6.00041 18.1393
7.74378 5.8048 17.7253
7.27067 5.61631 17.0684
7.10158 6.01825 18.9437
7.59958 6.14344 17.3845
7.19745 5.3691 16.5893
7.33508 5.99541 18.3716
7.35811 5.38702 17.5357
7.35854 5.50683 17.1157
6.81416 5.67256 17.2135
7.45796 5.34606 16.3403
7.03276 5.73766 17.1678
7.49469 5.75489 18.2138
7.47926 5.99609 17.8461
7.42272 5.9281 17.59
7.08839 6.09844 19.5161
7.33561 5.59289 16.7574
7.09462 6.3195 18.5987
7.04681 5.70621 18.2931
7.45898 5.69345 18.297
7.16376 5.38656 16.9217
7.45097 5.60112 17.3042
7.00619 6.08758 18.6546
7.22293 6.00327 17.8147
7.37742 5.40328 16.8985
7.10482 6.03079 18.2167
6.73608 5.68906 18.5261
7.12199 5.54593 18.8032
7.22622 5.65099 16.8241
7.4782 5.74984 17.8504
6.94101 5.54185 18.0586
7.42267 5.53337 17.8954
7.235 5.6008 17.9691
7.20214 5.3915 16.4723
6.93324 5.97179 18.051
7.11012 5.65021 17.1885
7.37637 5.51098 17.9414
6.92097 6.047 18.0004
6.90245 5.64994 17.3165
6.96043 5.42892 19.1113
6.90186 5.62747 17.7886
6.75942 5.2468 16.7064
7.01575 5.99881 18.0283
6.75672 5.62335 18.879
7.07216 5.57835 17.5674
7.06476 5.85821 17.9172
6.71067 5.36421 17.7264
7.02539 5.35043 17.3887
7.18508 5.58893 17.5429
7.0418 5.53525 17.9104
6.56863 4.94382 16.5009
6.72306 5.28735 16.9994
6.56814 5.6373 17.9076
6.77322 5.69408 18.3419
7.30967 5.89599 18.2927
6.89042 5.63141 19.4651
6.95437 5.62952 17.542
6.94837 5.37457 17.4333
6.78228 5.42033 17.9438
7.01695 5.59365 18.2566
6.78487 5.50979 16.6555
6.67978 5.39942 17.0981
6.59678 5.17585 16.9474
6.96441 5.58473 17.7073
6.76649 5.31255 18.4964
6.87803 5.52491 17.4949
7.1249 5.51379 17.3231
6.63785 5.20544 17.8921
6.95067 5.52933 16.8746
6.50969 5.16036 17.8599
6.93668 5.78185 18.5724
6.96707 5.28726 17.7141
6.79285 5.23819 16.7826
6.60842 5.38495 18.7473
6.47741 5.63427 17.8673
6.78146 5.26983 18.2688
6.62132 5.31634 17.7965
6.54545 5.40308 16.88
6.54079 4.99471 17.6668
6.42726 5.61687 18.7623
6.84633 5.59323 16.9616
6.37118 4.98197 17.0429
6.50295 5.38418 18.1755
6.81637 4.97489 16.815
6.74655 5.53856 18.2024
6.62022 5.02132 16.2785
6.50556 5.12291 17.0551
6.47486 5.27474 17.5579
6.97655 5.81676 17.9198
6.32937 5.05698 18.2052
6.68942 5.49114 18.4352
6.7713 5.40669 18.0268
6.40415 5.74371 19.3926
6.36362 5.26134 17.1391
6.60637 5.03427 17.9195
6.61471 4.62485 17.3481
6.49819 5.74484 17.7346
6.45385 5.20934 16.8074
6.1291 5.02407 17.1384
6.24127 5.49185 19.2637
6.88274 5.50939 18.6009
6.6679 5.38664 17.6559
6.43952 5.2939 17.114
6.47962 5.11131 17.1498
6.48682 5.21327 17.4487
6.3069 5.06336 17.6165
6.3443 5.31381 18.5198
6.96588 5.15364 17.5456
6.50163 5.18366 18.7539
6.47385 5.45451 17.8185
6.35688 5.44545 19.1126
6.38408 5.06898 16.2933
6.50153 5.11441 18.3932
6.28847 5.44838 18.237
6.40971 5.46327 17.9676
6.49316 4.97359 17.5952
6.74472 5.47442 18.2471
6.30788 5.42426 18.7248
6.34087 5.29013 17.8483
6.31909 4.91592 17.0194
5.95614 4.86508 17.5039
6.58213 5.40574 18.3483
6.47008 5.46464 18.5088
6.53122 5.17986 17.4669
6.38201 5.07551 17.3242
6.47255 5.30213 18.2146
6.35077 5.05759 17.4369
6.50965 5.12001 19.4024
6.43081 5.35539 17.8268
6.30154 5.17522 18.07
6.55894 5.16461 18.9528
6.6978 5.55344 17.9204
6.22305 5.31126 19.5139
6.55291 5.56999 17.5888
6.13364 4.91659 17.8753
6.65755 4.85147 17.4085
6.18334 5.31752 18.9621
6.19931 5.30436 18.3061
6.32496 5.17813 18.185
6.12309 5.40007 19.0936
6.65081 5.18187 17.3812
5.99279 5.02731 18.7469
6.23787 4.77765 16.5486
6.19029 5.0332 16.2444
6.09525 5.18451 18.5307
6.07534 5.76295 20.8189
6.48379 5.53509 19.7208
6.24278 5.25106 18.2497
6.27273 5.52086 18.9584
5.79315 5.4933 20.3473
6.05864 5.22464 17.8909
6.00922 5.20886 19.013
5.94991 5.23561 17.7154
5.95707 5.01075 18.0758
6.34906 5.20671 18.6606
6.25893 5.04026 17.6112
6.1432 5.34412 18.0198
6.26871 5.06642 19.0137
6.29706 5.34843 17.8533
5.85084 5.3352 18.57
6.36119 4.84459 17.818
6.35362 5.34677 19.8439
6.05701 5.14038 17.9452
6.07481 5.29895 19.33
6.24156 5.1028 18.1805
6.07964 5.23154 18.2539
6.06928 5.51939 18.8249
6.11895 5.15686 19.272
6.05862 5.43498 18.9312
6.03815 5.06061 18.4476
5.9844 5.22623 19.069
6.45723 5.32406 19.9062
6.10948 5.43725 19.8925
6.04494 5.72076 19.3562
6.33813 5.16818 18.5742
6.48494 5.66027 19.3502
6.26669 5.61008 20.6876
6.21137 5.14276 17.8356
6.10433 5.06013 19.1836
6.17907 5.51037 20.1375
5.92988 5.42222 20.9707
6.39659 5.97573 21.5903
6.34786 6.17164 21.1285
6.00752 5.63675 21.4518
6.34252 5.97035 20.3405
6.38964 5.26024 19.1315
5.86256 5.39724 20.5396
6.34224 5.64041 19.1028
6.24675 4.98174 18.0961
6.26937 5.0495 17.8275
5.95619 5.15849 19.1856
5.93358 5.23862 20.1427
6.09305 5.36461 19.2645
5.8114 5.16614 18.4869
6.10394 5.37317 19.4389
6.17912 5.34199 20.324
6.06769 5.25649 18.7252
6.02168 5.28527 18.3277
6.01634 5.48408 19.8401
6.12836 5.23646 19.8115
5.95358 5.45931 18.5993
5.96721 4.94544 18.4518
6.12444 5.02523 19.0941
6.07376 5.67239 20.3012
6.14458 5.37504 19.2871
5.81107 5.13399 18.5421
5.81099 5.20585 18.7805
5.73474 5.09946 18.9574
5.97415 5.06073 18.5268
5.78571 4.91257 17.9561
5.65577 5.22267 19.7305
6.01475 4.70221 17.8758
5.7871 5.06828 18.6905
5.994 5.4584 21.0685
5.81392 5.35389 17.9671
5.56805 5.12822 19.7071
5.79038 4.98463 18.1543
5.84434 5.00457 18.4254
6.02811 5.06857 18.9122
5.97086 5.11559 19.5036
5.66418 5.34562 18.9795
5.92457 5.12099 19.6036
6.00706 5.60114 20.5719
6.17673 4.81541 19.4557
6.31378 5.66102 20.0004
6.12414 5.38605 19.9777
5.96415 4.88329 18.612
5.7776 5.16007 18.7664
5.73097 5.13888 18.0142
5.61885 4.94787 19.9499
6.17196 5.24439 19.6251
5.72938 4.88135 19.3501
5.96076 5.28169 17.491
6.09099 4.66229 18.3208
5.78303 4.81277 17.278
5.56574 4.96029 19.8016
5.84725 5.25291 18.7179
5.80418 4.96759 19.0415
5.99975 5.05021 18.0934
5.35387 4.6446 18.545
5.82131 5.26455 17.992
5.56671 4.45078 19.2035
5.84043 5.40411 19.1781
5.79602 5.26951 19.0894
5.67565 4.9589 18.5542
5.98149 5.36676 20.5144
5.80564 5.28054 18.6037
5.96944 4.82744 18.701
5.82012 4.90106 19.587
5.58884 5.15636 18.6927
5.74965 4.77885 18.3129
5.3504 5.49529 19.4314
6.02938 5.19551 19.959
5.63581 4.94592 18.7498
5.91055 5.49144 20.9788
5.69141 4.93723 19.5811
5.83967 5.14755 19.4934
5.62127 4.73408 17.29
5.93617 4.90381 19.8883
5.72101 5.26315 18.7827
5.72746 4.87176 18.6287
5.88344 5.455 19.8034
5.91442 4.77138 18.0007
5.94772 4.98905 20.2825
5.52584 4.93873 18.0705
5.66483 4.91459 18.5643
5.8626 5.00058 18.1903
5.77517 5.1587 20.2717
5.88285 4.88276 18.0481
5.83742 5.25936 21.056
5.80213 4.97483 18.2534
5.71328 5.2827 20.0473
5.61354 5.52096 19.7369
6.0057 4.95316 18.751
5.93586 5.26342 19.5514
5.82032 5.2436 20.6754
5.81986 4.9484 19.929
5.69973 5.1988 18.3808
5.79452 4.99774 18.5828
5.7059 4.69062 19.2549
6.02925 5.11033 19.0422
5.975 5.15205 20.5878
5.63573 5.17946 20.2981
5.76506 5.02876 18.5389
5.58128 4.97536 18.5482
5.95918 5.24613 20.3588
5.71919 5.32108 19.2016
5.52683 5.2399 19.3526
5.58641 4.95546 20.8475
5.8793 5.17092 19.2978
5.59441 4.74816 19.8747
5.56424 5.2377 18.4869
5.22056 4.69363 17.7748
5.5484 4.80037 19.13
5.76883 5.05009 20.2357
5.2887 4.74913 17.206
5.55059 4.60337 17.0957
5.18512 5.20702 19.5445
5.59949 4.71264 18.2105
5.52894 4.67965 18.8332
5.45662 4.88082 18.308
5.45815 4.75762 18.2008
5.29899 4.52461 19.4517
5.57706 5.03688 18.9193
5.40258 4.65076 18.1095
5.52146 5.21213 19.7577
5.63258 5.10159 19.0613
5.49113 4.6721 17.2587
5.02048 4.58896 20.0021
5.4135 5.16073 18.6663
5.67857 5.19607 19.7855
5.78608 5.24454 19.6879
5.39683 4.67782 18.8339
5.45211 4.90298 18.3965
5.78305 4.89835 19.5869
5.67754 4.96566 19.182
5.67376 4.84585 17.9611
5.40409 4.95331 18.9301
5.60525 4.5647 19.321
5.76137 4.91351 19.2566
5.47343 4.96962 19.3943
5.51318 4.86606 19.7375
5.35252 4.86306 17.6895
5.62236 4.64869 18.3923
5.43483 4.30772 18.4622
5.74849 4.66576 18.3412
5.39306 4.81828 19.3726
5.54011 5.25739 19.0647
5.51859 5.249 19.6108
5.54236 4.49354 18.5749
5.59703 5.12487 19.219
5.59608 4.54918 17.5455
5.45983 5.00257 19.2998
5.632 4.64143 17.7495
5.44499 4.66349 17.9763
5.38937 4.56263 19.0034
5.68226 5.03861 18.9214
5.21848 4.89783 18.942
5.51107 4.59563 19.6092
5.5209 5.1601 18.9539
5.4681 4.92931 19.9445
5.44327 5.18128 19.7512
5.52605 4.58268 18.7006
5.4039 4.93869 18.8941
5.51623 5.06168 20.1965
5.49408 5.15756 18.4785
5.54937 5.00633 20.8674
5.66182 4.94728 18.7496
5.33154 5.07116 21.8609
5.61488 5.2791 20.1261
5.35097 4.97048 19.7934
5.92859 5.28185 19.8576
5.56322 5.0588 19.9163
5.48151 4.81855 18.9782
5.40631 4.96499 18.6971
5.3578 5.08898 20.4699
5.55881 5.02849 19.5751
5.48588 4.9094 19.5691
5.44642 4.79289 19.2319
5.32974 4.9108 20.6132
5.33565 5.06064 20.7066
5.42937 5.18378 19.3983
5.5329 4.83659 18.6286
5.56902 4.58445 17.7053
5.3913 4.73021 18.8453
5.74564 5.01564 18.3644
5.68559 4.70848 20.7703
5.55694 5.07803 18.4423
5.53026 4.83235 19.1312
5.26689 4.952 20.5094
5.58177 4.96698 19.7928
5.2669 5.20879 20.7195
5.59455 4.96257 19.3857
5.3658 4.70841 19.0798
5.34477 4.90257 21.0471
5.46077 5.5645 20.1441
5.58306 4.87956 18.5078
5.21752 5.03586 19.916
5.25154 4.80413 19.8712
5.16484 5.3671 18.6501
5.42828 4.45384 19.6807
5.37573 5.12479 19.953
5.59124 5.20919 20.6902
5.5327 4.96102 20.0407
5.26821 4.98148 20.1682
5.75386 4.91369 18.5968
5.69695 5.06718 20.4604
5.37653 4.65819 18.9469
5.26843 5.28723 21.1839
5.53918 4.9834 18.5182
5.28478 4.82701 19.3497
5.42576 4.78452 20.1432
5.45559 5.27653 20.2985
5.44445 5.0313 17.7296
5.10533 4.25778 17.7243
5.37649 4.73382 20.022
5.4615 4.98408 18.5502
5.6106 4.47895 19.7602
5.47585 4.99735 18.7772
5.46853 4.77976 19.4788
5.72388 4.90523 19.7516
5.3818 5.1088 20.5597
5.47503 5.22216 20.4396
5.37353 5.09884 18.903
5.30562 4.57967 18.3702
5.30155 5.08233 19.3887
5.25374 4.65663 20.2548
5.70632 4.82299 19.6216
5.6138 4.91591 18.1249
5.52384 4.88414 19.5992
5.19109 4.71934 19.2855
5.33139 5.2059 19.9574
5.37611 4.85467 19.6466
5.52249 4.94633 18.9096
5.37752 4.94931 19.097
5.59364 4.70643 19.4315
5.24361 5.19182 20.006
5.38227 5.16549 20.587
5.23724 4.67489 19.3125
5.56988 5.155 20.8973
5.27224 4.78925 20.3344
5.2925 5.33732 19.0562
5.50315 4.99798 21.2254
5.6497 5.31997 20.9875
5.61536 5.19424 19.4355
5.37948 4.97164 19.6451
5.10959 4.6901 17.9342
5.22784 4.35522 17.3298
5.28385 4.65361 19.4273
5.43351 4.94861 19.7444
5.38614 5.20357 20.2007
5.34764 4.67523 19.9431
5.76076 5.02579 19.2657
5.39312 4.61455 18.7251
5.50983 4.59248 18.4031
5.26363 4.76034 18.5403
5.26709 4.90366 18.1412
5.33842 4.94572 20.8382
5.48521 4.84403 19.9069
5.53907 5.05398 21.3173
5.46114 5.50324 20.2356
5.38031 5.17996 20.1693
5.45224 5.1092 22.7069
5.51389 5.10202 19.5362
5.14692 5.15267 20.1825
5.42212 4.95723 20.2155
5.16028 4.87447 17.4804
5.30165 4.5098 20.5599
5.71056 4.95596 18.744
5.55057 4.87367 19.6992
5.32522 4.90116 19.7616
5.44069 4.83943 19.393
5.49037 5.08439 19.6602
5.4136 5.01088 20.2483
5.43974 4.91621 20.8861
5.63231 5.06121 18.2245
5.35788 4.73295 19.5561
5.48588 5.05048 21.3087
5.65556 5.29698 18.7948
5.46167 4.69042 20.5283
5.53309 4.92718 19.4923
5.45754 5.12715 20.7
5.5985 4.9464 20.2969
5.47714 4.76742 19.6059
5.39659 5.34795 20.6208
5.45768 5.53329 22.1263
5.55371 5.22929 21.1585
5.65848 5.43595 22.3337
5.76071 5.28801 22.3607
5.84546 6.20071 23.5093
5.60333 5.39066 20.0281
5.37041 0 0