# pn-170911/CsIIA-39-AMC2-1280-1959.psd
# Power spectrum* (dif=0,1,2) (really just |FT|^2)
# NOTE: only the first half! (symmetric)
# weeks: 1280-1959
# 69 clock-days, 40 excluded
# PSD: 1441
59450.9 1.25119 0.0263731
2.52508e+06 30.8738 0.0165794
1.27439e+07 282.366 0.0219338
1.81587e+06 64.52 0.0174569
1.30177e+06 90.2537 0.0236365
672570 61.4392 0.024184
460896 64.0137 0.0289282
298330 56.559 0.0284149
258932 67.0473 0.0380565
196416 60.9551 0.0384731
182281 74.2967 0.0501742
133157 58.9324 0.0565334
105771 55.6275 0.0552352
93547.4 59.796 0.0619416
75661.3 51.9966 0.062776
55672.9 47.8317 0.0648752
72211.9 73.5666 0.107923
39004 51.9767 0.0835442
43832.8 55.9939 0.101069
36794.7 50.7074 0.108898
39516.1 62.7797 0.137067
40931 64.2469 0.151041
29794.6 54.437 0.146474
28493.1 58.2712 0.15736
24376.9 52.9036 0.151195
23706.9 56.554 0.178501
20984.8 54.4865 0.191138
17199.8 42.1416 0.185473
21006.4 57.72 0.231153
15775 51.9333 0.211484
17676.6 53.8005 0.257166
14056.6 51.1741 0.249918
14614.1 61.1008 0.313719
13942.7 51.5242 0.282273
15033.3 67.9596 0.397408
12039.3 56.4682 0.357157
10216 52.1906 0.332846
9708.71 54.0243 0.349801
9235.62 51.1123 0.359625
8689.21 49.5032 0.360022
9340.48 48.9542 0.385599
9515.38 75.1677 0.598615
8942.19 57.2383 0.511834
7064.33 48.9023 0.444165
8052.83 49.8744 0.471751
7936.46 64.7481 0.652359
7506.22 65.3437 0.703708
5830.06 48.3542 0.551181
6940.78 58.0688 0.619868
6817.48 65.4499 0.762739
6120.59 52.8116 0.700954
7070.95 67.3828 0.838639
4947.76 54.8309 0.699609
4806.02 47.6035 0.64302
6042.37 74.0501 1.04391
4142.55 46.0796 0.685177
4409.85 62.7566 0.941106
4105.86 52.0919 0.832342
4518.03 56.4674 0.944151
3564.05 48.524 0.813738
4401.4 55.4129 0.934887
3587.23 53.2506 0.955993
3845.07 63.8347 1.19429
4708.72 65.3383 1.28078
3824.63 61.1249 1.18371
4513.37 74.4314 1.45849
3747.42 61.4803 1.29129
3517.72 58.7607 1.31022
3169.67 54.868 1.26464
2848.83 49.7921 1.11812
2756.66 52.7441 1.21248
2444.9 48.6841 1.20359
2849.75 57.486 1.41437
3086.91 63.6821 1.66221
2766.58 57.9165 1.52604
2784.8 54.7679 1.51476
3073.3 67.9878 1.90202
2241.81 56.3441 1.58761
2122.85 53.4111 1.56769
2716.31 63.7799 1.92326
2336.89 56.7201 1.6373
2565.95 62.1601 1.92818
1825.61 46.883 1.50651
1813.75 47.9421 1.637
1935.25 50.1329 1.72759
1885.96 51.1106 1.70388
1892.12 51.2914 1.81007
1784.55 48.3513 1.73961
1732.98 52.0367 1.93267
2170.43 69.2663 2.65812
2123 67.2244 2.6272
1158.23 42.7554 1.69384
1529.43 46.0914 1.8715
1420.72 46.3001 1.92044
1776.36 56.0777 2.36752
1961.62 66.2734 2.84696
1462.32 47.2107 2.06168
1211.6 43.7898 1.98299
1733.14 55.7593 2.49356
1377.52 53.4898 2.56632
1510.84 58.1661 2.73066
939.778 44.6009 2.14399
1516.4 59.6874 2.88955
1395.89 54.0102 2.68632
1209.18 51.5948 2.73088
1283.82 50.6443 2.66802
1419.33 58.6092 3.17993
1445.01 63.0873 3.40765
1265.26 46.2195 2.56197
1333.71 65.2385 3.64899
1452.94 57.2681 3.18994
1387.7 62.8715 3.69236
1100.54 52.8851 3.23971
1302.86 58.822 3.59186
1137.87 58.5341 3.72298
1227.56 58.776 3.6422
971.67 49.5517 3.32402
839.637 42.3705 2.72967
1099.78 58.2196 3.8615
1069.38 60.692 4.09308
1022.76 49.1284 3.33633
882.608 50.3655 3.47509
900.059 47.0694 3.37613
721.752 38.2967 2.72542
981.049 52.3306 3.61908
692.387 41.4154 3.06187
1085.15 60.4336 4.61468
715.988 49.4588 3.80298
927.251 57.0056 4.37467
901.763 57.7189 4.63099
848.503 51.1961 4.17307
860.944 54.1594 4.38116
932.551 58.6239 4.83516
761.005 43.4182 3.66498
739.913 47.6341 4.0156
737.206 47.829 4.11426
769.398 54.3474 4.67104
688.708 47.6654 4.24799
688.92 46.1344 4.05983
719.8 49.8432 4.62895
665.651 43.1272 4.05084
642.796 46.0843 4.34966
699.654 52.3641 4.90687
825.859 60.6725 5.83621
830.186 60.8361 6.07866
574.377 47.4967 4.67666
535.801 43.4085 4.35449
619.527 55.9859 5.8578
649.015 45.8731 4.6548
665.396 58.0163 6.13364
612.923 49.5386 5.10946
600.944 55.0206 5.97453
732.384 61.6034 6.83758
526.914 48.5749 5.33955
608.434 59.3227 6.62744
613.739 53.2602 5.90117
667.946 63.1076 7.2901
548.529 53.3604 6.32966
550.586 49.5456 5.7351
592.885 50.8777 5.93605
525.042 50.1954 6.1416
431.932 42.2047 5.18685
570.315 50.6675 6.09819
553.945 51.4336 6.46714
480.851 46.7592 5.96016
572.322 55.8817 7.13256
570.475 58.4539 7.46137
493.741 49.7455 6.64823
527.25 48.9022 6.37028
557.499 55.4137 7.5486
387.983 47.1707 6.44645
394.105 46.5717 6.51158
461.673 45.1412 6.36416
466.398 45.5167 6.22576
512.334 60.349 8.59161
386.836 51.5039 7.44484
537.517 59.6914 8.41906
491.384 55.5713 8.1598
345.818 44.7572 6.94054
424.891 41.7565 6.20888
470.588 47.812 7.25302
476.719 55.0489 8.29958
451.256 59.9096 9.42669
396.018 46.6507 7.37562
364.643 51.2461 8.35615
392.012 46.3117 7.41222
404.21 51.8782 8.83128
437.166 52.1708 8.92117
425.32 57.6884 9.27176
330.006 42.4102 6.96324
332.653 39.8011 6.89798
324.424 38.6461 6.68197
317.95 41.3656 7.11707
360.201 47.3487 8.41096
307.938 48.7914 8.67949
357.552 47.2896 8.48052
287.297 43.2979 7.80782
344.452 47.5924 8.621
288.423 37.1509 6.90428
292.588 50.415 9.14982
348.188 46.985 9.06953
236.3 35.3055 6.82767
322.704 44.3136 8.32587
277.953 43.6437 8.47066
276.975 44.9325 9.0977
368.294 56.422 11.036
343.424 51.389 10.1111
310.454 43.3734 8.384
286.123 41.7964 8.4346
350.081 60.1229 12.5453
321.4 47.8165 9.9715
256.747 47.6985 9.5661
270.773 50.6502 10.6147
333.642 57.3864 12.2687
261.574 47.59 10.5829
252.958 39.8607 8.6097
224.912 34.1986 7.59484
256.137 46.616 10.2616
274.011 47.7932 10.9989
239.251 38.2513 8.37181
231.324 42.1322 9.73143
240.712 41.5944 9.34824
246.545 47.3661 11.0803
301.063 52.3775 12.1393
222.008 41.9428 9.8851
247.977 40.3683 9.20363
224.412 49.7012 11.7284
267.156 49.024 11.8023
213.354 42.0766 10.3894
282.126 47.4304 11.4739
247.976 37.7776 9.31142
176.788 36.3069 9.51823
232.422 39.9619 9.44012
231.763 47.3692 11.758
206.487 38.4305 10.1756
249.416 43.4767 10.751
247.132 52.5982 13.9179
223.253 45.4142 11.852
213.756 38.8333 10.4134
242.267 44.8248 11.6352
184.328 40.6727 11.1418
194.645 35.855 9.60048
187.217 38.5251 10.9492
219.409 40.6963 10.6941
183.695 38.4788 11.0514
233.774 41.7437 11.4671
231.385 51.6119 14.8988
206.902 42.5806 12.4036
206.977 52.6395 15.21
180.695 46.5995 13.1576
203.224 43.3008 13.1704
212.088 44.436 13.3049
192.295 44.6985 12.9626
153.438 30.6782 8.81034
191.528 47.1681 14.2923
179.508 43.994 13.4654
177.197 37.1212 11.1205
167.419 42.3087 13.7236
197.302 42.5109 12.5282
179.145 38.5355 11.7567
202.047 44.162 14.2859
183.28 44.8283 13.8747
194.725 49.5227 15.5051
159.513 37.7476 11.8873
184.216 44.8345 14.8636
176.602 39.0126 12.7229
157.931 37.1754 12.4467
210.321 51.5831 15.622
162.903 41.7847 14.2682
150.472 32.4775 11.0643
181.261 40.2588 13.6436
147.536 42.2323 15.2701
167.415 40.2543 13.2062
153.21 38.1205 13.0409
148.555 40.1905 13.7802
141.539 37.8171 13.575
146.987 37.1818 12.8559
154.508 40.329 14.1893
150.187 43.4385 16.0186
150.352 33.1053 10.9736
168.812 43.4967 15.6191
121.447 35.1561 12.6609
158.305 45.5577 17.2342
161.212 42.849 16.082
136.489 34.9766 13.0863
164.252 47.6662 18.0513
114.897 33.3927 13.0531
146.338 47.2357 17.5653
164.254 44.5918 16.8151
137.407 38.8661 15.6719
139.616 43.0098 15.7804
149.711 37.5481 14.3843
110.646 33.0487 13.1518
139.668 35.719 14.1178
125.355 42.1556 16.9703
136.098 38.045 15.5968
129.834 38.1781 15.0366
117.981 37.1802 15.1514
113.963 40.4903 16.1962
122.337 39.7246 16.5089
132.901 36.8484 15.6318
158.155 43.0301 17.9761
119.067 37.538 15.7618
129.235 39.0872 16.5552
97.2089 32.2759 13.3911
117.908 37.8354 15.9082
103.094 28.7978 12.6556
98.0243 35.3562 14.4045
123.081 49.8287 22.7753
118.791 38.4827 16.8092
133.272 38.1109 16.9456
136.693 40.3847 17.7771
108.608 38.5683 17.5331
122.428 34.5312 15.1747
139.117 47.9914 21.5923
126.713 37.7069 16.3366
109.74 45.2253 21.7105
102.24 34.7537 16.2699
109.603 31.1759 14.4136
127.52 36.5473 17.1285
118.558 42.4078 18.9516
102.9 35.5631 16.5381
90.4489 33.099 15.3192
104.08 39.341 19.9927
115.654 36.1256 16.1465
132.649 42.9985 19.5595
108.699 35.5815 17.9179
119.217 42.7263 21.2872
114.944 37.4708 16.7753
114.483 48.461 24.5342
117.869 40.9088 21.3279
112.904 39.6895 18.5732
98.5457 35.0132 18.3716
113.466 41.3961 21.1341
109.312 44.3955 21.6259
91.6007 35.1543 18.3195
86.4778 37.4914 19.5653
92.1447 35.304 16.7291
96.992 36.8879 19.1876
77.6646 27.9118 15.2463
101.872 40.2327 21.3036
70.2017 34.0659 18.5246
100.47 38.1302 20.0458
91.6518 35.1524 18.4829
96.2393 34.7719 19.7754
106.829 39.4545 18.8536
85.4271 34.8772 20.5915
90.0305 33.6241 17.8413
91.9132 32.9003 18.4573
80.9345 33.5679 18.9
99.0493 33.963 17.6686
84.3861 39.9236 23.4798
81.9613 33.1022 17.2879
69.7994 27.2811 16.3047
93.0368 37.7292 21.8678
88.7895 41.2042 23.2485
106.325 36.1461 19.2948
98.712 36.4014 21.4797
79.9764 36.9636 20.6391
88.2831 35.6787 19.943
78.5175 29.542 17.3361
63.9784 28.0829 17.8503
84.7657 37.3217 20.6959
75.4755 32.3762 19.8454
77.2281 24.3987 13.4637
62.6321 32.0024 19.6279
81.7306 30.9865 19.3331
68.5196 30.2399 19.0535
84.4968 31.8072 19.7023
78.5299 32.118 20.5966
80.8727 33.1017 19.9755
76.4041 36.316 21.3426
69.3653 28.8883 17.8561
77.0006 34.5793 20.5338
86.4764 39.2735 26.2017
79.1669 36.9427 24.5716
96.1748 42.7033 26.3269
76.0589 32.3444 20.0466
81.3429 38.1046 25.6895
70.0473 37.95 23.8897
75.4139 31.111 20.8151
69.4878 32.7344 20.9227
67.2696 32.745 22.5705
62.0607 30.5788 19.2486
65.2791 28.5454 19.1863
63.3535 29.985 20.0809
68.3606 33.4323 22.493
50.7753 30.4065 23.0674
82.9032 35.1487 22.0054
71.6437 36.0858 24.1368
61.5831 26.1822 18.299
56.8202 26.5437 17.2785
60.6355 27.9998 18.3161
59.672 27.5794 19.6904
63.3901 29.3143 19.7504
54.1933 23.6066 18.1289
71.1912 30.8239 20.5135
74.3565 30.3533 21.1153
67.3962 32.5928 22.6418
63.457 31.976 22.8523
64.1481 33.6405 23.4858
60.5848 30.2996 21.2828
65.5316 35.0217 25.0953
61.2722 27.2532 19.8508
64.3197 33.4885 23.809
56.7324 30.1319 21.9667
49.6791 26.3876 21.0411
74.4326 36.1187 26.5958
60.5269 31.8272 23.6844
66.7538 30.226 21.6381
66.6081 38.5728 29.2436
61.3532 29.0721 21.9744
64.1379 30.0081 22.3197
63.7794 31.2216 24.4172
60.3861 33.2237 25.2209
67.3175 35.1254 26.2239
56.644 32.0354 25.7128
60.4117 34.2955 25.9667
56.7049 27.79 23.1341
53.3753 26.7822 20.2172
47.7586 28.7547 22.8657
67.016 31.772 23.1445
51.4501 33.1 26.0588
66.5141 32.7866 26.2211
45.303 26.6668 21.904
60.4621 32.2342 25.491
49.9181 25.989 19.6307
52.1496 28.9214 23.9217
55.5098 26.4645 21.3764
41.5081 26.6461 22.6108
58.4051 29.2084 22.0617
57.3923 35.0465 27.1251
42.1496 24.3023 21.0939
49.2346 22.9403 19.7926
70.5622 43.0089 33.7142
42.3488 28.0607 27.82
48.1455 27.2875 22.0846
57.5444 27.935 21.5168
42.8468 25.6035 23.4936
44.4882 21.7217 18.689
54.0997 29.9989 25.7984
63.1585 31.6546 26.8372
45.707 28.626 22.6908
45.5425 24.8903 21.2138
38.2887 22.3724 19.8683
44.1022 25.2549 22.5128
49.0615 28.8791 25.2128
53.1686 31.652 28.2
53.3369 30.5472 24.8198
48.3476 30.7588 28.9703
53.8838 29.5625 27.812
45.7498 28.9596 24.4291
42.8943 26.7991 25.2136
51.4667 31.0998 26.0337
46.5983 29.3538 26.8681
43.1445 28.557 26.5095
41.3953 32.0914 28.3236
48.7864 31.2703 28.4933
40.5077 26.4681 25.6225
45.0825 24.9627 22.1003
44.7406 27.6502 24.4607
43.7329 27.1969 25.1251
44.4221 32.7744 31.7868
48.8063 31.5792 30.752
49.8746 35.3479 31.0529
45.4891 34.0044 33.1461
41.4969 24.5865 24.413
33.5601 21.8171 22.1295
42.4969 26.6659 25.8347
43.3123 24.8901 24.0144
55.3128 30.7196 26.7698
36.0301 26.3342 26.3328
47.4584 32.7409 31.7274
41.9014 26.0598 25.4072
43.066 25.8555 25.889
42.1667 24.5901 22.4741
43.1701 24.2841 24.1856
47.6956 32.585 32.0123
36.4773 21.0473 22.0049
37.3326 23.5935 25.2547
35.841 26.3415 25.7227
37.1111 23.442 23.3703
40.3505 24.305 24.9336
42.178 26.474 24.4083
40.9542 32.8084 31.9707
40.472 28.2622 30.4967
37.2957 19.8582 20.4543
46.7211 30.7531 32.9011
41.1347 28.9583 28.3216
35.3418 22.6731 25.2144
38.1436 24.3059 23.2317
33.968 26.5664 27.5771
33.8527 26.5863 30.9742
42.2137 27.24 26.4148
39.6798 25.0496 26.2525
43.5432 27.0668 26.3345
38.3438 29.0509 35.0588
37.0533 24.6287 22.6533
25.4784 17.1489 19.9998
40.9194 33.4476 37.3807
41.5299 28.4008 28.2198
36.2563 26.3491 28.7006
33.4179 22.5894 24.3642
40.2467 26.5016 31.1692
40.6633 28.1796 30.1826
37.0591 27.4025 30.5044
31.053 26.7782 28.2284
27.3893 19.8356 25.9734
31.7141 20.4638 19.9818
28.9114 20.1598 23.1674
36.6258 30.7827 30.008
30.2398 21.9012 26.8235
40.8666 28.2518 29.6596
33.8523 23.3323 28.9675
39.0996 26.2835 28.199
39.9354 24.4245 26.251
26.3313 20.2383 24.9647
27.5294 19.9757 22.1862
33.0001 20.0718 24.1053
32.5324 25.8659 29.2695
33.7255 21.9294 26.0794
36.3543 28.4797 34.1935
40.2163 29.2328 32.5173
34.8045 29.4361 35.0392
31.2028 20.6796 25.2672
38.2086 28.198 29.4744
30.6839 20.3298 23.1699
31.1705 29.1304 36.8946
35.024 27.1799 31.2104
26.5617 18.5694 22.4595
33.2721 22.339 26.9479
29.2973 22.774 28.9698
34.5083 24.9416 29.4899
29.8445 17.6534 19.2716
29.3799 17.6518 21.6322
24.7104 18.3155 25.7873
32.0829 22.9179 26.7918
29.5622 22.1803 26.8749
31.1987 25.4019 30.884
38.2294 26.6151 31.8988
31.3228 25.9086 34.2643
35.2864 26.7011 31.8458
28.5133 21.6441 27.1763
27.0544 23.7163 29.8941
36.2284 26.5788 33.1839
28.6247 27.9725 37.4626
31.2917 20.5091 25.871
31.2049 30.0906 35.6661
24.3777 19.1824 23.8467
33.4883 22.0042 26.365
30.5347 25.0499 30.6355
27.373 22.0923 27.4899
26.6045 22.3024 30.1128
23.8384 15.8571 20.4299
35.1126 24.8367 28.0678
28.2967 22.8562 32.518
30.419 25.2299 32.1962
30.7237 23.6585 28.993
19.5439 18.0042 24.6147
24.6589 20.6773 28.3217
31.2403 26.5444 34.7196
23.9725 18.9449 26.0509
31.1387 21.7235 27.7542
30.0692 24.5408 33.0714
27.5311 25.1475 34.9773
25.5678 20.7402 25.3163
23.7754 19.566 26.7211
28.7367 19.0222 24.8573
24.6872 24.8511 33.3673
21.494 16.5727 23.59
23.7411 19.8945 27.5662
25.2487 18.1635 28.3576
26.0535 19.8327 26.8701
29.1919 20.4782 25.5893
22.6455 22.1497 33.4897
35.3641 26.0305 32.9015
28.9315 26.0589 40.7894
27.9408 25.7746 30.9363
24.2301 26.6439 42.1922
31.1539 26.4682 31.3022
21.9249 18.5513 26.7389
24.2599 22.7181 31.5747
19.3991 20.5195 32.6404
29.0944 25.3919 32.8448
22.5271 21.645 31.1053
27.4838 23.4197 32.0327
22.4495 23.4198 35.974
26.8515 22.0604 32.6805
25.9969 19.034 24.3154
20.261 18.2977 28.6567
24.8166 20.4474 26.1665
23.8257 19.7193 26.4304
25.7313 24.4993 36.1618
24.4072 18.5266 27.6676
25.4441 21.9425 30.7914
19.1797 17.9247 28.2582
24.9849 20.5456 30.1111
20.1167 21.0904 32.179
24.7486 23.2155 32.3522
24.6845 19.1738 25.6657
19.4422 22.6714 38.6035
23.4846 19.8909 28.7552
23.448 18.5966 27.6359
22.7013 21.6502 32.5273
24.6638 17.5142 27.2219
22.9331 21.4323 27.1013
19.6277 16.5372 26.8265
22.9691 19.4853 29.0765
20.9261 16.9585 27.4263
19.0554 18.0043 27.8092
19.7749 19.4674 31.3301
23.1746 21.808 35.5739
21.7039 19.0635 26.0748
23.5122 19.7246 28.5364
21.5148 18.9505 30.2875
20.7611 17.4472 26.4302
20.5048 21.0493 34.0639
19.6601 17.679 28.8416
21.8129 19.8421 28.3453
19.1849 16.6149 27.8132
22.3585 19.6152 34.1982
27.228 26.6083 37.7634
21.527 25.0316 37.3094
24.066 20.283 32.8536
20.2946 20.2568 33.2529
20.3264 19.9715 31.3004
21.9228 21.0517 35.2872
21.9744 22.0572 33.2483
21.4818 19.9376 29.4334
21.0803 19.2309 33.9132
19.8451 18.2836 29.0137
20.7691 21.5232 33.5525
16.7774 18.5008 33.8331
21.3395 17.6774 28.4865
20.0916 21.046 31.9495
21.5817 21.813 35.1393
22.1171 19.8348 30.0023
18.9664 19.2933 34.897
19.5839 18.505 26.8305
21.938 21.4748 34.1357
20.7724 18.9332 31.451
17.7708 18.5851 27.9648
16.6865 16.2402 28.2683
17.1347 18.87 30.1935
17.3749 19.2924 36.4876
19.8437 17.6421 28.2237
18.5571 20.5433 34.1939
17.6321 16.1474 27.0149
16.7082 17.7488 33.9117
15.3865 18.9715 32.1159
18.5485 14.0829 25.1445
21.2215 19.1109 31.8172
19.6144 19.7608 32.9815
21.231 16.6644 24.9247
17.078 17.4727 29.5245
15.5553 12.3595 23.4745
18.7916 18.0615 33.9983
19.8524 18.6278 30.224
15.3147 15.6555 29.3349
16.6296 16.2933 29.7457
16.2739 16.661 24.9719
16.7689 19.2389 31.713
16.086 17.7984 37.502
22.9884 19.8775 30.5251
18.1323 19.5837 37.4698
18.8353 17.3847 30.4895
18.1347 19.8092 32.4506
14.3299 17.159 28.5186
14.6225 17.7165 32.6184
17.2303 19.1939 36.4286
16.3518 15.322 24.1823
15.5626 19.6769 40.6789
21.0787 18.3388 26.6445
15.9169 18.7849 32.648
16.6712 15.9353 30.4785
17.8952 13.9524 23.5473
16.8837 18.644 35.779
17.3052 18.308 33.6087
18.7442 19.958 33.6498
15.563 16.5816 32.942
20.942 18.7725 29.861
16.0951 16.6691 32.0454
19.0857 21.3089 35.7606
15.8771 18.7066 39.2735
19.3734 20.2109 34.5551
17.5931 20.7471 40.8557
21.908 20.3349 34.3498
13.692 13.5197 28.523
15.0729 13.8607 24.3382
16.7175 16.862 28.2297
13.342 15.0451 33.3491
15.5159 13.2866 28.1336
14.8457 20.1864 35.4181
16.5748 19.4702 35.5897
17.2241 20.6815 36.8955
17.325 13.9193 25.7
14.0864 18.6213 36.4378
18.2764 17.95 32.4151
17.5538 16.984 30.4324
13.9962 18.0213 35.6534
14.9577 17.47 34.1808
16.1603 17.157 30.7981
15.966 14.1725 30.9546
17.1923 15.2173 30.9031
15.0497 20.3268 34.8786
14.5943 15.9869 29.7376
15.6743 18.5036 36.0257
16.9915 18.7071 37.7677
16.4934 16.3912 31.9141
17.0452 16.9909 33.5268
14.3388 14.9746 31.1337
17.4676 19.8222 42.058
18.922 18.5628 32.0899
15.2668 17.8528 34.3336
15.8584 20.2799 39.2465
15.3689 15.4304 32.8574
17.9178 17.6851 36.406
14.6462 17.2236 36.7701
16.7055 18.774 34.4479
13.6641 17.9014 37.8111
14.2973 16.2689 33.2547
13.614 16.8634 37.0505
16.2974 12.7757 23.1187
13.3571 14.0598 29.2439
15.1203 14.805 26.1469
12.7159 16.7235 36.3657
15.6029 18.1581 40.7771
16.2848 14.0427 25.468
15.6856 20.726 41.3847
15.6966 16.2988 28.5739
13.5873 13.1976 31.4789
17.4379 14.9877 30.0507
15.1666 13.9362 28.9816
15.5097 19.9949 40.9812
17.4738 18.0051 34.8479
17.6948 17.2456 32.2211
14.7701 14.7021 32.2726
15.4597 19.1499 39.7509
16.2611 20.6443 41.5416
12.9778 13.906 32.8952
14.3528 15.6121 32.014
15.7901 15.1837 30.2795
14.3968 15.2262 32.3367
15.4543 15.7678 34.1656
13.1953 18.5822 38.03
13.6752 13.2103 28.9864
12.0272 15.3922 32.0749
16.5638 17.6985 36.5563
14.0478 15.4366 32.1161
16.1891 17.4647 37.6113
14.7364 16.6239 30.4452
10.7937 11.7641 28.1911
12.8417 19.0167 41.5845
12.7669 12.5449 29.1425
12.8091 13.0949 31.3081
15.3359 17.1195 33.9412
12.5309 13.2396 31.0384
12.2719 11.4128 25.3346
12.8705 17.1284 36.0793
11.9732 13.1036 33.2903
14.2174 16.3526 41.3756
14.3996 15.8733 31.7527
13.1937 16.1167 34.4385
13.8695 13.6559 28.1796
12.9227 13.6889 29.2449
9.85827 14.6289 34.0772
11.7925 13.5186 29.5739
14.1751 16.6452 37.9795
14.9587 16.9037 34.3781
12.6468 14.0552 28.6805
12.0226 17.7026 40.0615
14.9041 14.0548 27.7757
12.5787 14.1832 34.0196
11.4974 14.7658 33.8289
12.902 12.56 27.6582
14.6158 15.5744 31.7015
11.5661 12.6566 31.1753
13.0445 15.7702 32.1479
13.4452 15.6885 40.5865
13.012 15.0684 30.8118
11.0108 11.2648 26.9982
11.8681 14.7454 33.78
12.8182 14.4621 26.3031
8.63228 13.6028 34.3274
12.4013 12.8851 35.7908
15.5885 16.5406 38.1422
13.6428 13.9337 28.0312
12.398 15.4296 35.3263
12.1792 15.3276 29.8574
9.54255 11.1739 32.9813
14.0557 15.3602 31.4182
9.54648 13.0599 31.0526
12.6416 9.99985 23.6289
11.5555 15.4945 35.2237
10.4036 10.6292 27.9997
12.4272 11.0491 22.4954
10.9139 13.7591 37.0337
12.8015 13.4527 27.9479
11.9339 16.1874 32.9276
12.7302 14.741 37.8168
12.0963 15.8448 39.2939
13.0968 12.7101 27.2189
11.9221 13.9258 32.7485
10.8382 16.6241 46.782
12.6516 13.8751 31.7398
10.8658 14.6639 34.3144
11.2455 15.4818 32.793
10.6741 12.4993 31.5824
10.9942 13.5798 30.9975
9.92768 14.1999 32.2196
10.1372 15.5841 34.1387
9.97881 13.7155 33.8472
11.0118 13.4054 32.1249
12.5004 14.153 36.1563
12.7484 15.7193 36.9605
12.1393 15.3832 33.6457
10.5682 10.5262 27.487
10.7982 11.2433 29.4267
11.5637 13.7437 33.309
11.9853 15.0598 31.0029
9.96547 11.2469 34.6029
11.9476 14.3214 31.7405
13.1804 15.4906 39.7323
10.6012 12.3829 33.7451
10.6137 14.2401 30.7861
9.53526 11.8838 28.9688
9.87815 14.1861 32.2671
9.41649 15.3147 43.8517
14.918 14.965 35.4217
11.5599 15.849 35.6349
11.6435 13.6355 35.1054
9.56199 9.66766 32.0366
12.282 16.9261 33.8616
9.94675 11.6888 32.2927
11.5035 13.3782 32.5156
9.86812 12.0663 29.0226
10.5601 12.7542 29.645
9.64439 10.8241 25.1926
9.45586 13.2406 34.5881
10.0732 12.3383 35.9301
9.53426 12.493 31.1942
11.6978 13.3225 31.6754
11.5881 13.2918 34.9263
11.2557 16.1108 36.8159
10.0678 15.3777 42.5734
9.24161 10.6472 35.6467
10.7942 16.1278 33.5733
8.83076 9.65925 24.4559
10.037 14.1385 33.2386
12.4529 15.03 36.5109
11.3648 14.7852 42.3039
12.8843 13.0245 25.8399
10.7353 11.8359 31.973
9.12027 10.4612 25.4031
9.41255 11.8341 30.4656
9.9264 12.5036 30.7839
10.5161 13.8182 34.5687
10.328 12.1432 29.141
9.7655 11.505 33.4084
8.76085 10.3667 36.1249
12.8445 15.648 33.9107
10.319 14.0976 35.0874
10.2776 15.8825 41.9879
11.4645 10.1697 30.6069
10.7078 15.2532 29.7165
10.9011 16.8189 44.8404
8.62883 10.9892 35.3737
11.0444 15.4988 39.882
11.0201 12.6009 31.2094
9.16405 10.0056 29.6888
9.89814 12.7858 30.8283
9.62011 11.5346 29.6492
9.84917 12.7185 36.061
9.13976 14.7817 41.7463
9.80733 11.0927 29.4449
9.86567 13.3426 33.9881
8.99066 12.3183 34.1951
9.83213 11.3787 32.9534
10.4607 14.2224 33.2373
9.2804 11.0939 32.4493
10.1211 11.3512 29.4616
8.4698 11.5282 31.3957
9.94391 11.2178 24.9307
7.50121 10.9154 27.6286
9.73157 12.7599 33.2349
8.26308 8.10477 26.1522
9.61833 13.1645 30.7165
8.728 13.5503 41.3995
9.55066 13.538 28.9193
8.89787 13.803 35.2784
8.92329 9.47598 34.6485
11.066 11.6106 27.0013
9.38165 11.317 33.8845
9.36784 11.4301 26.6406
7.62971 9.5942 27.9374
9.59245 12.0289 35.2346
9.16711 13.7576 34.9327
8.5636 10.2634 30.3459
10.2239 13.0532 35.8783
9.59581 11.0571 29.9108
8.55849 11.3523 28.8751
7.25936 10.4706 34.0225
10.2987 11.5474 29.4068
8.87722 8.25231 24.6463
11.1864 13.9118 39.9145
9.77592 12.7328 34.6707
9.32304 8.12441 23.1665
8.27725 12.6925 36.1831
10.1278 9.52422 25.3496
9.15939 9.94676 29.7712
8.56608 12.3512 33.7164
10.1466 11.7362 34.2559
8.57594 10.0427 31.626
7.98545 11.9134 31.1016
9.57574 11.2569 36.026
10.5594 11.4835 28.2769
9.49841 13.2804 38.1096
8.02815 10.2016 39.9603
9.58524 12.7102 34.4793
9.56321 10.5718 29.2596
9.1468 11.3324 28.3249
8.74903 9.87633 31.4624
9.37171 12.0839 32.7072
9.25502 10.7691 23.7927
7.5202 11.6893 34.2257
8.18666 9.20297 26.5917
8.43247 9.13209 27.5403
9.02095 10.3719 29.5896
7.17984 10.6948 32.4971
8.87465 9.81217 29.0297
8.85993 11.2079 24.7193
7.52754 11.8466 34.2451
8.87227 10.9106 30.1284
7.257 8.76741 22.1606
8.56523 8.65342 24.4665
6.10761 8.45232 32.0382
8.82462 11.0561 31.5546
8.18043 10.294 32.0677
9.11922 10.5655 33.8039
9.23232 9.93559 29.064
8.16018 9.13173 31.8279
10.067 10.7515 23.9773
8.37216 12.134 35.4372
8.86257 11.7116 30.6171
6.78473 7.70213 24.9675
9.21994 13.4765 32.0528
7.88858 9.05123 29.2915
7.1503 7.44764 25.2783
8.2211 10.1246 32.3835
7.81003 9.74026 30.7841
8.88537 14.7725 40.5109
8.24944 11.8561 40.4739
9.80645 11.2368 34.0897
10.0096 11.7676 30.6094
9.61748 10.8915 36.8584
9.60023 12.8532 29.6521
7.74197 9.5741 30.8271
7.72983 10.564 34.2745
9.58963 13.7152 39.3292
8.33515 11.7457 38.5574
7.24647 8.33742 27.6414
7.61739 11.3908 32.4632
8.07045 10.2148 32.9963
8.13158 12.038 29.9472
8.0787 12.8705 38.0335
8.02775 7.70198 25.4013
8.73537 10.3966 30.731
8.80887 11.7394 32.6183
8.99215 8.87858 26.8167
8.26191 8.38426 28.7609
7.33733 9.39607 28.3844
8.11351 10.1773 30.9244
7.99638 10.0475 29.8066
8.26814 10.3016 36.6656
9.45147 11.284 29.3518
8.19141 8.19247 28.7189
7.66933 9.23566 23.2465
7.22064 10.1134 32.7382
7.68872 10.7822 34.0287
7.12957 9.03365 28.1935
7.17188 8.89334 28.5389
8.70191 10.6025 37.9413
8.82534 12.8648 38.6076
8.38664 12.6147 35.7422
8.92783 10.6293 30.9018
6.29523 11.9305 38.4086
9.36293 9.95605 30.1723
6.99638 12.0005 34.2406
7.54723 11.9013 43.2367
10.2355 12.0028 25.3768
6.89064 8.8284 37.6636
10.1484 13.3187 31.7808
7.25013 8.81524 30.9753
7.12571 11.8886 43.0949
9.39177 11.754 33.4737
8.38386 10.2796 31.1316
8.01226 10.5319 36.0738
8.56023 12.4149 38.6912
9.14214 10.1407 33.2814
7.95372 10.7095 30.3322
6.95302 7.65105 23.4448
8.15893 10.8031 35.6291
6.90367 9.66334 28.4242
7.07754 11.2076 33.9619
8.10488 10.1112 31.2176
7.2826 8.83846 28.6242
6.40761 9.9059 33.9521
6.76264 9.55106 35.194
7.19877 12.2478 38.0196
7.8408 11.5194 38.2441
8.09876 12.4516 34.4657
7.95697 13.4038 39.9384
7.99019 9.8798 36.3525
8.66598 7.3867 18.4158
7.30536 11.5457 32.9324
6.39864 9.59286 39.5476
8.6466 11.5173 31.0011
7.48441 9.91093 35.7214
8.14937 12.2708 39.5308
6.71136 8.04474 24.7277
6.21899 7.94617 31.4363
6.285 9.59721 35.914
7.7046 9.47881 29.7773
7.26927 9.33513 26.405
5.94568 10.0067 34.339
7.0571 10.0251 29.5854
6.4157 8.21425 27.0182
6.95809 11.591 34.4963
7.6087 10.8331 31.02
6.91871 10.3917 31.3995
6.62731 7.70812 30.9186
7.24804 9.741 28.8219
6.85456 12.4231 37.7035
7.50658 8.53533 28.2611
6.95785 7.99108 25.5304
6.57598 9.00838 30.4238
6.96042 7.82033 28.4245
8.10429 8.72809 26.4136
7.21021 7.11097 26.0101
7.2444 9.06426 26.4675
6.54756 7.82089 24.0655
6.50748 9.43516 34.3818
7.5972 11.9027 32.8801
6.95618 8.95457 31.1913
7.36018 8.27648 29.4935
7.41029 10.4035 35.1736
6.44681 10.5802 29.8647
6.96124 7.58773 32.1403
6.6191 9.16197 31.0558
6.86332 8.83439 25.9701
6.1508 8.27496 29.9668
7.82992 9.80651 31.4701
7.44284 11.6689 27.6966
6.12662 6.34403 27.1811
6.27746 7.85865 25.8854
7.43284 9.05907 24.2429
5.98697 7.50887 29.6857
6.87928 8.31718 29.5864
7.26823 9.52637 34.3654
7.45298 9.32661 28.0112
6.16371 8.63537 33.8109
7.49712 10.7036 35.9259
8.14933 9.87686 29.0028
7.01861 8.0061 26.811
5.64668 8.20034 28.3161
6.25598 8.35485 26.756
6.88384 10.1146 29.4789
6.7846 10.1038 42.425
7.21749 7.74128 30.2296
7.6292 11.7998 32.2192
7.05144 11.0874 37.4281
6.89735 8.36574 35.4513
6.74018 11.4225 37.4091
7.37955 10.9995 43.8285
8.43875 11.7799 32.7136
6.05047 10.9575 28.7973
6.27283 7.99035 36.8545
7.96197 10.9084 31.8889
5.74782 8.49431 34.799
8.05462 10.9793 40.3851
7.39737 13.4858 42.5939
8.28297 10.8634 32.7578
6.80566 7.92444 27.9807
6.3289 7.19792 27.6162
6.46533 7.11984 17.0979
5.46152 7.28593 27.1163
6.7333 10.551 35.8524
6.54552 9.93054 33.7296
6.79118 8.03712 28.5481
7.01987 8.52852 25.4513
6.65695 6.05337 22.1842
6.46673 8.25827 27.6816
5.89973 6.41562 25.7001
6.25953 8.26983 28.0543
7.25464 9.97218 32.4326
6.47736 9.43078 35.6916
8.44063 9.21612 26.7585
5.8431 7.4353 29.8729
7.00087 6.78044 22.0353
6.50728 8.89781 28.1823
7.04981 8.68524 32.6586
6.51357 9.50544 32.036
5.41367 7.02086 30.4032
5.70389 7.94341 29.1037
7.03813 10.9266 34.9674
5.65218 7.36741 28.4991
6.25131 11.2166 35.8809
6.65568 7.14264 27.1734
6.12141 6.78462 25.2233
5.80054 7.61815 25.5083
5.55924 7.10133 24.0277
6.03652 9.73404 34.2372
6.37035 9.36427 30.052
5.57152 6.83218 29.6227
7.34234 10.7947 34.8338
6.43592 8.88172 25.4554
6.21018 7.76345 24.5135
6.40403 7.51402 31.6591
7.50768 9.16721 39.7488
8.61952 8.89016 23.6877
6.30727 9.88154 41.7767
6.36918 7.66724 26.1928
6.71993 9.66936 30.5452
5.78795 8.47041 33.713
7.6853 9.69793 31.1506
6.06687 7.82238 25.7491
6.46284 8.08708 34.4546
7.0438 9.90187 30.7554
6.50206 8.07674 29.0428
5.66177 7.29593 26.6047
5.39437 6.33716 24.2921
5.938 7.3735 29.3744
7.07294 7.80238 33.7484
6.53012 9.57935 30.897
5.83465 9.69841 25.3859
6.11524 7.30274 26.4941
5.60768 6.90635 28.8417
5.92814 9.13934 31.6605
6.80366 10.6867 35.6962
6.24698 9.82629 36.3454
6.80963 10.0797 35.3352
6.45812 8.03386 29.4424
6.42094 7.36636 26.4808
5.90594 7.26173 30.1173
5.6743 7.75287 29.3787
6.84395 9.45309 25.4047
6.78214 9.48216 30.095
5.76434 7.8213 30.5078
6.08794 9.87348 34.363
6.50598 9.53378 33.3651
6.38843 9.11632 40.4034
7.20869 9.02968 23.8166
6.16222 7.99951 30.815
6.2531 8.97225 34.7232
6.28759 8.79076 33.7055
6.68151 8.37891 29.7565
6.54038 7.65214 28.1182
6.29509 8.06594 31.7922
6.52714 8.72041 28.7619
5.51483 7.95206 26.2926
5.4394 9.08529 33.4873
5.65058 7.63571 31.1855
5.05746 8.09332 33.1074
6.22888 10.4647 32.4979
5.737 6.33057 30.4036
5.96548 8.02891 29.0059
6.20936 9.68369 24.8835
5.3171 7.12153 26.1858
5.29023 7.18141 32.9057
6.09803 8.28297 32.2739
5.71466 7.10616 23.8994
5.44496 7.54047 26.6491
5.37283 7.10671 31.7866
5.85667 7.11851 30.3524
5.29357 9.36027 26.6551
4.82779 7.16283 20.1126
6.03339 6.24423 23.8342
5.72625 6.93665 27.9957
5.29374 6.88799 25.3496
5.58923 7.50037 25.8636
5.74682 6.96442 25.1002
6.15876 7.70897 29.7052
6.65813 9.2007 38.8271
6.73023 8.47341 21.1494
5.33659 6.77449 28.6043
5.92817 6.95914 25.2012
5.14817 8.14717 37.9366
6.50032 8.45908 23.0799
5.58353 7.13025 25.4709
4.75609 6.54102 26.6524
5.75468 8.2111 29.2087
5.07229 7.2323 28.565
5.90923 7.64986 28.0374
5.99636 6.92869 20.9634
5.4671 5.29521 19.6791
4.70337 7.35278 28.5805
4.62244 7.707 26.2486
5.51634 6.6513 33.7865
7.04856 9.25506 28.1735
6.12668 6.29249 25.8216
5.14386 7.3137 28.1413
6.52838 7.54152 29.9934
5.57829 9.48716 30.5102
6.14155 10.0331 32.2471
6.32142 6.09955 31.6255
6.14493 8.58739 27.9497
5.3525 7.70423 27.9793
5.75707 8.48599 34.3552
6.62629 8.13272 38.1148
6.12102 7.29737 21.9764
5.42856 6.43472 32.0295
4.67049 7.39744 28.1333
6.29612 8.09489 22.841
5.03782 6.67343 24.8052
5.4066 9.32568 38.6321
6.59526 8.01708 30.5432
6.11133 7.30779 27.8844
5.6775 6.43107 28.4338
5.42095 8.9423 24.4732
5.91965 7.97567 30.4515
4.7142 5.65992 30.6524
6.208 10.067 32.3194
6.25929 9.08894 32.3961
5.65402 8.48261 28.5394
5.3495 6.49778 30.5738
5.67834 8.10052 29.6289
5.43656 6.60027 27.0922
5.93363 7.89346 32.9539
6.34814 7.88434 27.6257
5.19344 7.58748 28.0683
5.21687 6.52805 22.2631
4.95547 7.23263 27.4752
6.12803 8.73965 24.3867
4.95863 7.85788 33.7341
6.46416 6.17831 27.6868
5.38731 5.61009 26.7045
6.06516 11.0341 32.1726
5.44413 7.76739 32.0777
5.44944 7.23667 25.9872
5.28207 7.901 35.2435
6.19578 7.80556 20.6016
5.22424 7.72724 32.0579
5.16082 9.42261 34.0552
6.57559 7.90628 30.6614
5.89984 7.90966 29.8794
5.79823 6.6 25.2795
5.27359 6.86575 27.9733
5.50503 6.82443 33.2177
6.13756 8.17297 26.4836
5.85562 8.01711 26.5371
5.30936 5.69172 19.7499
5.83695 7.19561 28.0099
5.46529 6.92066 29.2252
5.69454 7.98351 32.1661
5.19479 6.16922 23.9911
5.01433 6.35939 27.73
5.29075 6.18122 32.3874
6.0966 7.4914 23.0256
5.46474 6.77482 28.2179
5.23057 7.61004 26.6604
5.11777 6.82199 27.423
5.70669 8.12469 29.0798
4.74448 6.71721 23.5849
4.82695 7.21627 34.2526
5.8861 8.10525 25.8247
5.41354 7.12388 31.0687
5.40438 7.55759 27.1018
5.21811 6.31436 26.8452
5.25501 7.23701 24.4296
5.77068 7.32833 35.7159
5.62232 7.74976 25.4021
5.86128 7.3133 22.9713
5.01967 8.31977 27.669
5.10481 6.04526 26.8036
6.16206 7.00511 30.6913
5.32869 7.07734 24.9764
5.07683 5.88818 22.0291
5.13898 5.95257 27.3723
4.25968 7.70721 25.7649
4.51723 5.63598 20.3954
4.45585 7.71859 33.3007
5.9293 7.10756 30.9658
6.12905 9.29601 28.5461
5.37922 5.07961 26.6997
5.76634 7.93023 26.9462
5.03567 5.69443 19.5572
4.73443 7.52944 31.5922
5.52848 6.14397 27.0433
5.76257 7.34162 25.404
5.00654 6.91809 27.1884
5.53279 7.71865 32.81
5.9146 8.68423 27.3412
5.84784 7.7792 29.8689
5.44325 7.93591 25.5888
5.48696 5.55248 24.4593
4.86311 5.39914 21.6465
4.90499 7.97402 28.3302
4.77216 7.17743 25.3314
5.05669 6.37002 31.7742
5.24312 7.98663 27.5377
4.90078 6.0176 22.8351
5.14439 6.25734 22.6896
5.11041 6.55952 27.1205
5.58688 6.52303 28.2412
5.95087 5.47837 27.1617
5.68541 8.37728 26.9785
6.08482 5.227 20.3518
5.06963 6.7309 30.9002
5.51652 7.78844 22.8031
5.47645 6.71688 28.7149
5.46117 6.35079 24.8115
4.8423 6.7796 21.8685
4.9087 6.86514 27.4687
5.3662 5.6657 26.075
5.5534 5.95041 28.1159
5.25188 7.08895 26.3151
4.82157 6.78742 24.4041
5.85439 6.21299 23.8773
5.28788 5.3225 22.7546
4.46127 6.34902 24.6787
5.09194 5.70496 24.6759
5.20865 6.38428 23.2346
5.55949 7.37686 26.9621
6.14988 5.83296 25.0712
4.33075 8.22646 29.9702
5.86023 7.00874 32.8915
5.82444 7.70888 28.2152
5.6692 6.75951 27.3455
5.44478 7.09499 25.272
5.32434 5.26892 22.955
5.58744 5.89942 19.6525
4.855 5.33612 28.4568
4.86149 7.70618 24.664
5.13909 6.44919 23.1705
4.3861 6.94359 27.8585
5.68315 5.7052 22.7157
5.19437 6.28581 19.0017
5.07103 5.86625 25.7694
4.86179 5.94404 33.1258
5.28209 7.23662 25.2639
5.22754 5.62258 19.7114
5.12094 5.46053 24.7466
5.01635 7.18737 27.5578
4.98595 6.5458 24.2399
5.28686 5.57729 24.0285
5.435 8.39057 31.6933
4.5455 6.92802 26.9746
5.19195 7.13595 30.4397
5.92652 7.59009 23.5067
5.80891 6.01611 21.8616
5.0966 5.67699 32.399
5.85644 9.12334 25.1649
5.79361 6.48967 24.7706
4.47894 7.0306 41.1613
5.71106 10.7559 34.6002
5.12337 6.76131 27.8031
5.87808 7.32548 25.5983
5.21774 6.23986 28.9473
5.79747 8.90131 34.7495
6.04868 6.98701 32.1015
6.16243 8.2474 27.3045
4.719 6.83357 31.028
5.32458 8.77823 25.1906
5.29665 5.80605 29.1306
5.32221 7.70866 24.8657
4.6065 6.10856 27.9271
5.21146 6.33279 23.0479
4.95711 6.11033 20.9204
5.17926 6.91128 31.0863
5.72764 7.59162 31.8099
5.54811 8.76677 31.1459
4.97656 7.11 30.5579
5.40602 6.58746 22.3642
4.73012 5.35208 28.7389
5.5546 5.92855 22.3201
4.92732 7.55831 27.0237
5.63952 7.15675 26.3525
5.13973 8.70862 38.2684
5.87722 7.5156 29.7784
4.85113 7.06713 32.0942
5.09221 6.78449 23.2987
5.40377 6.29631 33.9101
6.5294 8.09322 26.8792
5.47731 6.79301 24.4195
4.65612 6.94931 28.348
4.66952 6.03249 28.3944
5.05539 8.31021 23.7143
4.73608 5.19787 20.957
4.95385 5.70991 26.9209
4.58834 6.85553 30.3155
5.63348 4.90723 23.3094
5.41019 9.08327 32.5282
5.48537 6.14182 22.9517
5.10503 6.43707 26.5519
5.19173 6.38432 25.6102
4.97946 7.54159 25.4528
4.5068 6.9401 29.1368
6.07089 6.12741 27.6177
5.95343 8.41833 24.5941
5.45322 7.37794 27.4414
5.11721 7.57029 34.761
4.86859 5.42655 25.6632
5.0972 6.25345 25.0331
5.21849 6.38172 22.0702
4.38602 7.53001 28.5114
5.54537 5.84497 26.9548
4.53098 5.52236 23.9815
4.81141 6.15383 31.4106
6.25909 6.93087 25.1349
4.91414 6.09478 23.0528
5.50287 6.77895 25.9117
5.15873 5.91302 20.334
4.51991 4.95633 22.5367
4.45636 5.63742 22.404
3.99181 6.35877 22.5835
5.10765 6.70013 31.1492
5.79245 6.76934 27.6801
5.36251 6.60325 26.3571
5.31287 5.85973 27.0353
5.06104 6.64999 24.2105
4.89447 7.0476 27.5428
4.85357 6.99222 29.0587
5.3764 6.59715 22.9659
4.83093 5.99914 24.2186
5.87706 6.69865 26.9072
5.11503 6.42544 26.1942
5.20547 7.6108 34.2297
5.69295 8.27115 30.0074
5.45222 7.37671 29.1434
5.78471 8.69588 35.1563
5.44968 7.0432 25.0648
5.39761 5.46527 21.1454
4.89634 6.41991 32.5582
5.67161 7.39722 29.2916
5.82583 7.58288 22.1848
4.70867 6.22204 33.8325
5.83748 7.10464 26.796
4.54468 7.90501 25.4162
5.05332 5.85776 31.1142
5.52503 8.54432 38.0576
5.77987 0 0