# pn-170911/CsIIA-35-PTBB-1280-1959.psd
# Power spectrum* (dif=0,1,2) (really just |FT|^2)
# NOTE: only the first half! (symmetric)
# weeks: 1280-1959
# 4 clock-days, 0 excluded
# PSD: 1441
76427.3 1.39522 0.0455785
2.66459e+06 19.3692 0.00299629
1.64273e+07 448.898 0.00775739
3.22077e+06 101.127 0.0078607
466389 41.4731 0.00695537
542616 39.7102 0.00740998
979848 142.924 0.032252
743909 149.997 0.0274381
283796 62.2959 0.0269528
248965 38.5895 0.0163169
188023 92.4508 0.0507832
57165.7 11.5022 0.00944113
152603 122.421 0.0851977
154581 100.648 0.0859207
158274 111.649 0.0962241
152540 138.38 0.123798
131126 117.158 0.145057
44634.6 36.3017 0.0607195
32786.6 69.1343 0.119121
38365.1 42.7647 0.0651808
49123.7 35.5023 0.0710333
25231.5 35.6989 0.0788861
17087.6 74.8469 0.190624
30459.1 92.9897 0.268091
16595 38.8384 0.105338
43334.9 77.4578 0.209234
30081.1 105.809 0.373019
33870.1 93.0901 0.309965
16723.3 49.951 0.195643
27848 76.519 0.319864
43156.9 172.55 0.802525
8538.41 32.5768 0.164079
10315.1 18.9902 0.0903964
29186.4 85.4251 0.453405
12144 29.3642 0.157179
17579.2 76.3778 0.470022
6911.38 19.0895 0.12846
14066.1 69.6206 0.443081
27200.7 122.229 0.83986
24958.6 157.396 1.16356
19437.3 88.5379 0.708442
8997.64 37.0242 0.282745
7502.89 26.3385 0.233748
7778.27 59.3483 0.52374
8663.77 45.2266 0.359944
11113.4 59.3788 0.56738
8852.99 73.5566 0.716482
3457.01 25.3058 0.273286
8689.53 63.3195 0.686985
10976.9 110.212 1.24241
13134.2 83.4364 1.04277
2749.94 14.629 0.201599
1823.42 40.7434 0.523762
3519.25 18.4394 0.242113
5585.33 69.717 0.995466
4526.39 61.5206 0.886231
6682.56 73.504 1.0807
6989.27 138.912 2.28799
5693.13 52.4662 0.79879
8425.18 93.5656 1.5642
3908.67 44.7494 0.7891
12571.7 130.745 2.46732
3840.07 61.1966 1.00377
3383.81 55.6257 1.06543
4433.19 120.654 2.45912
3571.92 71.2859 1.45151
6235.68 160.318 3.32449
3372.05 54.6363 1.13163
5017.62 112.539 2.49292
4209.08 48.6222 1.01981
7595.77 138.306 3.16194
2059.43 45.7926 1.10004
954.204 13.6493 0.364884
2967 43.1567 1.07014
4476.73 74.5888 1.96828
1436.76 52.9899 1.46413
2069.08 56.7577 1.66012
2497.52 47.6188 1.3584
3801.1 48.6726 1.44167
1980.18 40.596 1.17772
1707.27 23.473 0.620722
2799.92 67.524 2.07469
3363.25 49.4735 1.54206
3008.58 73.7869 2.45937
2813.47 48.6388 1.61868
2879.83 51.3635 1.89473
1536.42 44.3081 1.51136
356.095 20.1026 0.752563
1641.77 64.6992 2.53627
1208.47 53.2454 2.15099
2478.7 98.4838 3.86222
2181.58 27.3417 0.83973
2169.21 37.0308 1.4813
2688.59 66.519 2.64716
3429.23 93.9184 4.0093
2729.04 57.9059 2.41257
4125.1 135.746 6.17794
1914.23 51.1308 2.01372
1446.24 26.6331 1.14565
1593.24 31.772 1.66661
1803.94 74.6198 3.31483
858.884 33.3296 1.59321
1935.04 57.9185 2.9497
1645 59.0009 3.14561
1345.62 55.0169 2.76126
305.136 11.5007 0.594325
1383.76 37.6787 2.24357
3317.73 124.336 6.74237
487.291 23.1223 1.23205
2722.84 106.384 5.91339
669.055 17.0552 0.871865
1223.7 57.1592 3.52902
597.036 31.0546 1.86175
2343.58 111.398 6.61697
843.313 27.7412 1.65658
1018.6 63.5019 4.17811
1038.93 39.0249 2.20668
488.926 32.7638 2.09386
336.263 38.0785 2.55754
612.313 19.5909 1.3244
619.98 79.7163 5.34823
1014.48 63.8721 4.5211
614.488 40.8607 3.00154
1537.31 69.2269 5.09332
814.369 49.5266 3.86976
2246.73 79.6332 5.53979
1023.38 45.8456 3.66024
1719.61 96.7198 8.11091
1425.45 74.5578 5.2388
1100.14 40.7488 3.33341
1224.41 69.1557 5.81053
474.394 43.6998 2.75536
895.591 93.6845 7.63106
1396.54 130.877 10.7673
399.668 31.7787 2.95895
2322.21 151.636 13.2136
408.343 56.4036 5.41889
645.411 23.8559 2.21418
1054.32 65.7349 5.78453
632.576 13.3952 1.16703
543.385 25.9083 2.3792
331.221 33.8613 3.37748
745.082 28.239 2.47911
840.446 46.443 4.7297
539.508 14.0567 1.45396
303.314 17.2489 1.9719
798.626 51.6708 5.65557
1169.23 109.22 11.0507
585.099 16.5066 1.89103
1169.15 83.8652 7.7511
656.946 44.0495 4.88141
904.837 104.489 11.2976
370.181 13.7832 1.65363
906.742 44.7063 4.71634
906.27 75.6174 9.33177
552.897 46.4872 4.52543
170.767 16.0481 1.62356
657.678 45.5384 5.21782
485.636 39.7745 4.91239
971.589 62.9232 7.80295
640.706 93.0888 10.9605
1031.32 82.3071 10.6724
536.699 30.8702 4.39122
158.576 21.6085 2.47322
258.972 27.0987 3.7554
482.768 39.4014 4.86054
318.995 68.7506 9.27952
143.894 33.076 5.78864
619.023 45.2314 4.8691
842.903 75.9538 11.1018
869.005 64.1422 7.1985
1051.67 73.2693 10.808
669.39 51.0864 5.44547
522.307 24.6078 3.21932
1137.48 108.928 15.7239
508.091 63.151 9.27388
666.879 51.8819 7.54544
428.188 37.5829 6.24147
265.163 53.2787 7.76228
890.281 96.3216 14.528
262.005 35.4608 5.18811
546.181 42.9973 7.13742
123.178 31.6146 4.99534
411.627 47.1839 6.98769
440.133 48.7063 7.60586
422.646 47.3729 8.51973
388.601 16.7383 2.49361
178.781 30.899 5.00444
295.889 35.8941 6.80813
200.545 21.175 3.09133
334.999 18.6406 3.29145
1047.42 128.377 20.7297
286.358 18.8223 2.82566
401.907 33.0849 5.00896
357.251 43.7836 7.8474
552.609 92.485 15.9377
77.1364 30.4276 7.33607
1042.15 122.12 20.8099
322.863 29.676 4.89559
331.284 50.2516 9.14467
162.723 9.18827 2.35947
547.517 67.4214 13.3861
407.776 40.9108 7.44895
768.383 85.1812 15.5263
259.588 20.4245 4.45105
322.764 49.6244 10.2852
378.796 78.9241 16.1417
295.215 41.68 7.46362
352.406 39.5843 8.05676
162.464 18.181 4.51155
373.398 55.5728 11.5361
431.155 46.3441 9.00611
154.403 27.8202 6.88472
245.629 35.0184 7.56032
559.041 68.6953 15.2502
249.726 49.2586 9.30577
177.884 35.8731 8.08369
166.128 37.2205 7.77394
227.606 55.8644 12.8673
183.301 36.2216 9.12993
336.944 32.2532 5.44941
163.764 48.1643 13.0276
518.784 49.6219 9.13566
323.378 53.3436 12.9106
135.252 36.008 8.14603
341.57 40.7008 8.99216
172.424 26.7154 6.63829
87.9189 25.1191 6.19077
283.511 39.7554 10.681
159.633 37.8736 9.83246
272.624 64.875 16.812
619.287 67.656 14.3328
169.443 15.4612 4.52941
347.002 72.4627 19.2337
292.571 23.6478 6.49363
224.651 27.7902 6.52604
259.28 45.9711 13.1914
250.629 41.9178 10.8727
534.647 160.901 41.9429
334.659 32.5393 8.3989
253.122 21.8535 5.24104
248.377 30.3883 9.99274
243.918 38.4792 9.17064
151.7 38.0159 11.1963
251.758 19.0782 3.72045
247.42 40.0808 11.0924
121.89 24.9095 6.03684
467.232 61.6294 18.3044
171.36 35.9682 7.74036
277.707 69.2758 19.3005
234.246 52.6119 15.7846
163.585 79.8427 25.8484
283.542 41.6305 13.0498
119.249 8.4997 4.6009
479.494 103.562 27.7852
147.909 13.8596 5.15597
114.622 24.8971 7.83365
240.234 42.6631 12.7384
102.998 22.1802 7.03259
218.094 57.2992 18.7414
234.964 40.0544 12.4033
306.265 65.0385 24.6025
157.595 64.9754 18.8565
176.579 49.0766 12.8227
151.179 22.5058 8.52083
175.082 43.736 13.9413
122.949 17.8661 5.99352
322.235 53.7632 20.1029
142.989 56.1972 16.1681
71.935 35.0178 12.065
139.716 50.1359 12.8296
263.263 74.2473 26.8567
204.597 86.4353 29.0504
65.4385 8.37293 4.09116
153.771 16.8366 4.91773
416.213 91.4834 29.6549
71.3867 28.0835 10.4458
111.588 33.5297 13.204
339.098 71.0277 28.7341
91.7435 28.9678 8.5043
99.2874 14.4123 6.39472
62.0993 22.3899 8.34559
131.486 24.3019 11.4733
214.129 32.6358 10.9451
210.71 25.9962 7.46578
126.84 27.3345 10.7599
136.899 42.6277 15.5738
304.425 74.9473 26.5023
183.796 45.5943 18.4221
133.888 12.8064 4.22657
212.442 46.895 20.5198
186.882 65.8066 22.4392
200.99 36.0805 13.7113
78.283 35.5474 14.2668
70.9913 34.5839 14.598
131.224 33.5129 12.9823
132.592 19.1206 8.96504
35.7126 39.0325 15.5478
63.6662 29.0477 12.2289
123.903 17.0196 7.19663
81.3532 10.5391 4.59396
201.326 42.6704 16.1535
66.5605 22.0558 8.72723
85.019 19.5346 8.16886
95.4411 38.9372 20.1799
162.7 32.4057 15.8296
269.771 49.1735 14.7231
202.263 51.7495 23.3473
67.3536 9.69625 7.27294
41.729 10.5956 3.50616
127.529 46.2606 20.9608
89.5947 32.8409 14.4143
266.326 70.4178 32.8847
257.044 67.6173 31.4029
52.7574 36.8852 14.5065
18.9255 10.3161 4.50499
83.141 27.4456 15.3377
241.8 70.2785 32.5972
132.838 58.9033 26.5961
139.274 49.3204 20.6645
95.1194 30.3886 15.084
93.0577 17.4395 7.98562
202.518 37.1797 15.7785
242.656 54.7264 26.2026
28.8919 10.5747 6.60008
118.452 37.5137 19.5615
53.8115 19.4689 8.15938
82.8459 37.9249 18.8876
84.6544 35.9269 19.4578
101.764 50.5909 22.9962
182.656 41.8878 18.6207
72.9852 18.1926 8.82296
138.485 81.9729 39.0263
77.8567 24.7061 13.9857
108.328 22.1348 12.6521
161.367 40.9992 17.161
65.1934 36.6937 21.6664
97.2264 17.0446 8.63062
108.151 19.3011 8.84961
106.285 35.5838 18.5463
72.4337 42.4395 26.35
132.75 39.5174 20.6102
146.907 51.3168 21.5798
125.043 23.0057 11.9898
94.2558 29.4165 15.3838
152.342 42.8982 23.877
85.5866 29.3003 19.9754
85.992 37.391 17.297
103.784 18.8558 10.3942
94.5544 49.5101 26.5761
98.4159 37.2213 24.1749
38.914 24.6752 13.0929
103.536 42.0887 23.2327
58.788 23.0931 13.4215
71.3852 53.0155 27.9694
146.386 78.0262 47.1707
125.586 32.4969 18.3672
116.217 40.9175 22.708
81.3074 37.1727 24.2929
121.67 23.8182 15.7942
53.1637 22.094 10.0592
23.048 13.2233 7.46049
36.2492 14.3665 8.04938
32.7673 20.1879 13.5114
64.5256 17.6553 14.2884
124.698 23.1124 10.5723
131.478 22.5957 11.1636
58.7357 19.8902 10.2189
51.0525 17.4457 12.1059
82.4692 15.7454 8.98822
46.1945 17.8229 10.9151
68.6947 15.9753 11.3243
61.4288 8.80073 5.56765
150.052 40.1274 23.4016
69.0074 22.6762 15.6381
52.6442 22.9889 15.3689
189.722 48.999 31.0831
167.209 72.9384 47.1938
69.2503 13.3192 12.6922
97.5466 44.536 32.189
79.601 23.3801 11.8714
49.0857 23.7718 18.0273
147.426 88.4445 47.7361
52.5016 26.4945 18.6861
42.9141 27.5285 20.4155
53.1521 18.5444 10.8002
75.9991 21.5042 15.5285
47.1794 36.2894 23.5222
61.8592 38.3934 27.9438
90.4259 15.8291 9.79503
79.931 44.9427 27.7476
57.1446 16.0404 11.7065
36.5088 29.001 16.1442
35.2931 24.1159 18.6818
26.641 24.6684 16.255
32.6059 15.5 14.3493
43.0191 7.90886 6.80845
33.4514 14.1262 13.388
51.9234 3.3311 2.64691
93.9968 19.0103 12.5664
56.1482 11.9182 9.4324
45.6556 9.32479 9.44938
82.1536 27.4406 25.1589
66.0795 45.3969 23.683
58.0055 25.5905 22.4429
61.3879 33.2112 25.1814
49.7708 35.0541 22.7537
87.4841 35.6163 26.4653
40.8685 33.0125 24.4267
36.0611 11.7461 11.0045
68.0257 13.5495 13.4449
63.1473 15.3497 10.8704
102.644 18.4117 13.2323
156.847 60.7226 48.2733
60.5115 42.2198 28.0105
56.066 16.8185 11.2071
52.5873 22.6478 16.0957
52.9935 22.4409 25.6484
139.922 38.5533 21.9573
53.8529 20.8429 15.6768
115.225 48.2443 35.7224
49.4616 16.655 13.9497
29.6683 12.6898 9.91543
78.7372 31.054 20.7715
85.6012 25.9936 22.5556
50.3478 21.2122 25.0652
46.2911 22.0177 13.8041
49.5764 23.221 18.9126
14.2016 11.23 6.96586
24.1049 28.903 24.6427
34.885 22.1211 20.1443
55.7298 14.896 9.78108
62.1592 17.555 13.4125
42.8867 32.193 28.5403
78.5447 28.0175 23.7393
65.372 17.4768 13.394
62.596 24.2494 17.3687
75.7823 20.983 22.3118
43.7621 36.904 31.5183
60.2218 29.4201 18.5773
55.931 16.5331 14.9121
48.0433 11.5263 12.2347
66.3395 39.6079 32.0102
52.0786 9.86724 6.66844
33.0638 3.17198 2.61777
50.0721 24.2653 25.0895
38.0423 22.6498 22.6302
73.4386 29.2939 18.2279
36.3665 24.3482 23.294
41.6596 27.6213 22.9707
78.1965 47.2653 50.5573
24.7363 14.8694 9.45805
31.647 20.6335 13.7553
9.92949 10.8561 7.09809
30.8822 50.1239 50.8881
88.377 13.1977 8.2776
40.4963 14.5482 13.1662
43.8342 10.6249 12.852
82.4071 30.3322 28.7087
14.6021 16.6265 19.8561
41.9941 30.9692 24.0854
23.8224 31.2403 31.3054
36.1044 18.3748 16.5815
35.9743 11.9265 12.0268
49.5889 38.4507 47.4682
112.53 41.684 40.6799
58.4125 44.2664 34.0535
39.5881 22.4703 16.9767
15.8207 9.98934 15.1531
68.1109 30.997 29.2673
55.8389 23.4927 22.3931
50.7345 22.2774 24.2912
29.7989 10.3791 13.2763
79.2339 27.8911 26.4227
13.8646 9.12121 11.8145
24.6483 29.8732 33.4441
43.8377 29.9893 26.4247
53.7112 16.1192 12.1528
57.478 27.6954 23.0733
69.2406 32.3183 25.9851
41.5144 27.9422 22.8562
48.0816 14.283 14.0987
52.9981 38.6977 29.2339
64.8296 26.45 24.5933
32.4011 26.5162 29.8064
27.3519 10.2021 10.4515
28.3322 13.6295 17.7996
62.653 13.1488 9.42706
46.5728 20.5594 24.0219
44.7016 14.0344 18.8756
23.5427 16.0977 25.2268
41.0808 21.1306 14.0267
53.1679 19.2359 22.4658
33.0491 18.1308 17.4948
28.096 8.3238 12.6932
21.7906 9.81475 10.8603
45.7787 26.5311 31.8277
34.7445 15.6665 14.0939
17.4179 6.40649 8.91057
20.762 39.1895 33.4309
29.6879 45.2941 45.8764
31.0832 11.6954 12.6796
32.4637 35.4685 42.1876
43.8221 7.29628 7.01119
42.0618 13.8405 12.043
16.4358 16.5537 24.8441
50.7062 15.645 20.432
48.9726 32.7912 26.5658
16.4536 8.7305 11.0904
39.3456 6.78784 8.91388
61.5041 33.0479 41.2656
24.2274 9.62349 8.22073
23.0485 16.6536 18.9686
39.4266 13.2751 23.7222
25.3836 28.6225 21.2252
9.13973 15.4556 19.1786
45.8564 16.6474 16.313
28.9204 23.8887 29.9345
18.6069 13.6947 19.1547
48.988 34.3831 34.3366
44.7788 19.1405 20.4087
27.4019 12.3119 13.5189
31.3932 18.1438 22.9926
14.5345 14.4508 30.0868
95.2154 49.8051 42.1465
24.6892 19.1379 23.7757
16.9808 3.01868 3.64641
28.6285 19.7854 22.642
44.9365 39.2226 45.8075
31.3131 23.996 34.2155
32.0117 27.2206 28.0361
24.3216 6.1165 11.7047
31.8433 28.0973 27.2593
18.5955 15.0892 25.3562
50.1142 13.8752 13.8065
37.2781 16.089 16.321
16.6542 9.73705 20.7903
44.2071 11.1358 10.0071
44.1843 20.8154 25.5433
24.8931 11.5401 14.7651
20.2668 11.1532 15.9035
42.6118 15.1674 8.76035
28.4352 16.1246 17.3673
46.6811 26.9288 38.4263
24.3053 18.9631 28.2114
33.8261 15.8992 26.4821
40.2416 19.449 29.3758
10.0596 28.1739 22.1468
13.3878 11.3141 10.9136
22.0452 14.2304 18.7238
21.2116 9.78293 9.12686
18.8855 21.7399 37.2581
16.2907 16.248 23.0288
42.4161 29.6578 28.2334
28.1099 11.6094 21.3613
45.9177 29.885 39.3773
47.2929 13.5489 20.6062
16.1611 13.0849 11.6857
17.6752 6.88887 8.03199
11.9143 12.9379 21.114
14.7925 26.8614 38.5532
50.0432 19.1022 19.76
34.1807 10.4076 15.6204
19.6589 8.83326 16.207
39.3742 28.4383 30.897
18.2694 12.7627 20.5474
43.2445 19.0569 26.3973
29.9977 17.4506 16.0046
13.6269 13.8542 17.0029
20.7853 10.6691 16.0335
24.0152 14.2328 31.3884
34.8749 8.50275 5.28854
23.2405 12.756 19.207
16.4879 7.55257 9.06853
16.1247 18.3716 28.3693
24.5017 17.144 18.9305
11.324 16.0012 28.9386
31.9732 14.9891 22.636
31.8931 11.4995 10.7113
22.8135 7.55244 13.9991
37.2846 9.06727 9.53934
22.2009 14.4684 20.5724
16.3347 4.53131 13.9721
37.5119 29.4761 40.3281
54.7538 48.5807 74.3965
33.708 24.3927 28.2128
26.3825 14.2838 21.2141
35.9645 15.7844 15.9639
24.5394 12.4673 16.4986
30.4407 25.9971 57.8504
71.6845 31.4665 39.7322
42.3587 28.8596 33.2752
36.2822 23.1995 32.2513
29.5212 6.25177 7.65618
52.9516 31.0122 38.9132
22.3336 13.3839 23.4698
13.6432 4.96096 10.0027
26.1239 22.4239 25.3717
16.355 3.22345 5.5946
16.582 10.8395 14.1343
19.2751 2.73755 7.67433
47.6252 28.5287 40.0986
19.3245 7.18397 12.1747
15.9212 3.34338 6.94709
29.5637 15.7283 22.8467
26.3137 10.3156 16.084
10.1833 13.0534 18.6183
35.4719 19.8549 32.8747
24.8689 15.5445 19.5218
16.159 13.9335 25.1371
13.1173 18.5062 27.8343
15.711 10.6613 18.8544
24.2773 24.6321 30.0799
31.2375 10.9162 23.4272
25.0388 19.7663 24.3924
21.545 22.6142 33.6811
21.2569 5.51547 12.3619
20.9452 11.6279 13.8796
21.5305 8.00289 23.4724
33.3388 8.35778 6.53917
30.4288 12.1628 16.7472
16.6606 14.451 20.0818
29.1931 9.25687 14.3861
21.5752 12.3652 25.4971
27.0779 14.3257 25.9997
14.8352 20.3112 25.8653
17.8698 3.90839 3.97693
9.73583 7.87511 14.8175
17.9091 10.4462 22.7847
33.1067 16.7757 24.3051
9.10187 20.1353 22.8975
20.775 13.0011 27.5714
24.5411 16.159 19.3257
15.5145 11.2315 19.855
22.194 5.76863 16.7158
26.6289 9.29948 10.6761
19.0773 3.63527 4.13221
19.3573 3.81738 5.5787
13.883 22.1457 41.4578
23.487 5.77444 19.1124
49.3062 23.007 24.2273
8.52328 15.2877 29.7234
16.2008 6.04058 20.6895
28.5176 16.7481 25.3432
36.114 14.8092 18.4259
52.9072 37.0058 51.8242
33.3829 20.3385 39.332
23.5209 12.8577 15.6042
14.7313 10.1012 12.8464
6.54221 5.43871 10.34
28.4294 14.7 25.5616
23.4312 10.7402 22.617
24.1481 8.37611 11.4962
21.0071 12.9974 18.8772
14.9502 13.7998 27.7336
36.1395 18.1133 34.67
12.7289 11.3572 18.0608
20.1929 8.57111 19.4773
15.8192 12.6051 16.1131
29.3038 23.8973 38.0148
11.4776 14.0971 30.2282
15.3794 6.1858 9.29845
8.76289 19.2203 31.1933
14.2489 9.87071 20.5177
26.7684 7.15383 12.9093
23.2314 14.5132 22.3038
15.5962 17.313 32.864
21.2008 3.90583 11.8649
30.9546 15.2974 24.7086
21.1479 14.3682 23.5384
8.60202 9.64033 22.3869
25.1612 14.6816 21.4781
23.1522 18.927 38.8397
16.8723 5.13394 5.29143
15.006 3.18707 5.09469
20.6882 13.0068 19.4975
15.7718 5.38595 18.4661
25.0303 36.7263 66.6399
12.9549 9.00416 17.4061
28.9856 13.0238 30.1488
6.64722 11.8292 18.746
27.525 16.4369 29.6175
30.6061 19.0451 39.7723
7.75351 10.868 25.2113
16.0428 13.6218 26.1722
19.5483 16.1895 48.771
30.0601 40.7914 46.6474
15.9154 7.54002 14.8606
23.0307 17.2891 38.7404
10.3309 12.8832 22.9903
9.27744 10.0292 14.0282
13.8018 11.494 17.4799
10.4174 7.30924 20.0882
3.57068 11.7146 18.553
14.0844 3.55125 6.81793
11.3779 5.78367 8.26424
15.995 3.73792 8.8069
13.5906 6.61586 9.25375
12.778 6.27522 12.1791
15.3314 20.1604 50.6213
33.2319 17.481 31.8658
13.8254 9.49543 15.8775
7.39646 2.89583 8.65474
11.2359 14.4299 19.8224
11.696 19.2472 37.5829
18.7156 13.9417 22.4366
13.4228 9.59877 20.9499
13.2759 9.80603 21.1459
33.5334 26.6426 46.934
19.138 9.0782 16.9799
8.20541 5.2893 7.25014
9.43983 13.2142 22.6852
14.925 4.88622 7.65118
5.71286 9.25293 17.9164
16.4615 12.1977 25.9489
19.8906 11.7949 24.4465
14.2378 9.60355 26.5002
13.3515 11.5707 24.6226
22.3936 6.38202 9.13843
9.40445 3.63673 10.7159
6.27438 16.5703 33.0763
20.4719 3.68667 9.70682
17.7496 10.6903 24.3504
8.39598 5.85447 26.8194
21.624 30.1481 47.1077
25.4523 27.8317 54.5389
28.5189 12.0346 27.6898
35.134 27.056 39.6772
7.30878 3.57335 18.3743
19.0388 10.3786 14.2227
18.2281 14.9327 38.7833
5.48663 11.3558 20.3951
14.3043 5.68799 20.4817
10.6115 19.8238 27.1497
10.6423 7.14207 20.2854
11.8211 10.5155 20.8465
18.1265 8.70644 16.8689
18.998 8.89781 20.4871
11.8758 10.2659 14.5352
18.1536 11.5363 23.1826
13.1067 4.55215 12.7728
14.9783 22.6792 47.4167
6.86055 8.04974 18.0831
22.7092 20.1507 44.224
18.4489 13.4413 23.2179
4.10207 5.84571 14.2731
11.6382 7.42321 18.7151
19.2408 5.04654 8.41895
16.8883 11.1705 26.6675
9.58194 2.66729 4.39867
15.3979 10.4068 14.2621
11.3071 6.03347 18.5649
9.14808 8.42488 30.0002
14.0468 7.58221 13.1984
11.5306 10.363 14.4801
11.8255 3.28243 13.1695
13.4629 7.15295 9.74918
20.0196 17.2389 37.4402
12.8945 8.32778 10.1151
11.4316 6.74317 11.8981
15.2987 10.5379 31.6271
17.942 3.7688 6.93849
11.6935 2.50333 9.99049
17.5383 13.0029 22.4747
10.7961 5.20698 12.8663
23.4678 11.9916 31.6891
6.29983 6.52358 13.2
17.7343 13.2723 38.0681
10.7527 14.9193 28.2254
16.4835 9.70856 17.4513
16.574 4.3607 10.7197
14.86 5.19057 9.27246
12.2145 6.89927 19.11
5.26736 7.69571 18.3472
17.9174 7.41364 14.9123
17.6386 12.9809 25.0805
15.2126 9.56394 32.5958
11.9767 19.1584 44.6795
11.4574 14.0879 44.4499
11.9304 7.30184 6.28451
12.4607 5.19571 17.4367
4.96557 22.1395 41.1761
17.1292 7.57817 19.1126
8.01915 6.39569 20.6668
19.3399 9.11619 11.2481
7.57215 4.11552 25.5539
13.49 11.1661 12.6715
8.03831 8.25889 12.2393
17.906 9.48697 22.8233
4.70317 9.81076 14.3353
14.9192 8.22749 15.84
15.7915 4.36848 10.5975
11.1454 7.71967 22.0955
9.61684 7.44903 25.8413
12.3463 10.215 17.3243
10.4994 4.81199 9.66866
7.54044 5.58873 18.6866
18.6299 7.79211 11.3322
9.75108 3.36204 14.3188
13.2758 7.64159 6.85797
9.10255 4.09442 16.5068
9.23837 3.33624 8.85228
10.9201 10.617 21.7086
17.734 10.8514 28.3417
8.443 6.91514 16.2579
8.75197 13.8442 18.8235
7.79418 10.604 24.9836
12.5861 6.07958 27.4231
13.3712 1.35619 3.48948
11.6116 13.3189 42.7173
7.10826 29.9259 55.007
10.4979 6.40206 21.7658
14.7864 10.0445 27.5943
21.2701 6.65863 11.861
15.0252 9.26778 26.1484
20.2376 21.713 54.7551
21.443 11.2306 24.4323
14.0659 5.31025 3.69265
10.818 13.658 36.8424
11.2455 8.27186 30.5988
13.7565 10.0788 42.4775
25.537 13.8007 14.7255
11.215 9.45386 31.1993
12.5617 3.76963 18.4405
23.0486 10.4908 8.66172
11.6321 3.50035 7.38535
16.6647 6.94163 10.7121
14.2905 5.09586 8.97221
14.2226 11.4295 18.4203
12.0393 16.2102 35.5055
13.8993 5.39739 12.3257
11.4724 6.33639 13.6727
7.10733 4.53138 14.7485
14.1923 15.2665 43.7909
5.33892 9.86358 27.4585
5.06382 8.52456 20.1032
7.0127 13.4071 36.9617
12.0329 3.17155 5.6564
8.11864 8.33193 21.2626
8.86106 9.97467 36.4512
11.9019 7.90633 21.5639
13.1537 7.04893 15.9302
15.0069 3.24177 11.2483
14.7793 7.10548 11.9885
16.1126 8.7086 20.7118
14.007 14.7176 30.8481
8.36096 5.42172 13.7024
15.4198 19.1905 52.909
3.70269 11.339 14.9874
10.7235 6.66897 16.0044
15.9896 14.6403 54.0851
7.1935 6.21613 25.1102
11.1027 6.97438 19.2063
5.95567 5.39782 18.642
18.2261 15.6122 29.8901
19.5195 13.196 26.1714
9.03545 4.42313 15.5506
2.61587 5.49141 11.8307
11.3941 4.88915 7.36889
6.63183 12.4022 35.8475
11.0824 13.0633 43.1606
12.1804 7.38111 17.815
15.3082 12.0563 30.9659
10.897 8.69246 26.7079
13.6049 8.34267 23.6129
14.6546 2.99864 3.89997
7.38203 7.77086 23.5058
15.0142 3.96426 11.514
9.02548 8.34817 21.9272
11.8636 8.80913 23.1409
13.7866 9.99536 29.8532
16.6885 7.76661 19.9041
16.2669 9.2611 10.1131
11.6313 12.8491 30.3681
6.64939 2.43532 11.2517
16.6631 11.5181 26.9762
11.066 5.61252 22.4719
5.82781 5.36012 10.5017
4.5701 8.86065 30.474
13.8614 9.67216 19.0737
12.5748 5.07505 16.0797
8.75028 10.4665 24.9584
12.1389 9.09111 14.0093
6.51352 7.08246 19.6328
5.34861 2.50321 12.1583
13.6859 10.9251 25.7789
9.13685 2.74037 6.98881
10.1726 12.9989 29.5932
8.29134 4.47054 22.8321
10.1047 7.88098 14.39
10.3044 4.2027 22.0486
16.7627 9.28261 26.9589
13.6548 4.41667 8.75212
13.0313 9.15392 13.4041
8.30104 10.6396 32.0545
10.4892 4.08298 18.6964
11.9587 9.2254 13.0332
6.06083 3.17802 25.315
12.7994 14.8666 29.1502
5.29898 6.31182 23.2354
13.5118 5.95312 9.04831
11.6462 9.43444 19.6898
12.2929 6.87776 23.0211
5.67254 3.48099 19.4517
9.55062 3.08241 3.47691
11.4129 14.5952 33.559
12.5745 14.0197 53.0882
8.86413 7.6024 16.774
5.50877 6.71563 11.4205
9.21053 5.40583 18.4707
10.1908 11.9892 34.971
5.49156 4.1435 25.9316
8.89554 5.36844 44.7017
18.9374 15.458 19.6036
11.0613 5.18632 20.4637
5.89539 6.3595 10.3743
4.69797 4.49068 10.4192
6.20638 6.79373 28.526
16.9742 4.87713 8.98179
9.41233 7.29392 22.6693
5.72821 8.47959 10.16
8.2797 6.69442 22.4993
9.40585 2.57918 27.9438
10.7693 15.3563 33.1706
8.08741 4.21671 9.35689
4.98752 10.4588 19.7787
7.82965 3.91449 10.0915
5.91262 6.77909 15.14
8.29417 5.3326 31.5552
11.5003 2.39938 11.6573
13.167 3.60681 19.3344
17.6406 16.3693 31.3128
9.81647 1.13546 10.8448
10.2241 1.31446 5.55641
16.3842 7.43484 15.8478
9.17244 11.399 14.7961
8.76129 4.35539 21.3457
8.35697 9.57055 22.8042
6.7408 2.56923 6.6278
11.9674 5.77474 17.1307
5.18037 7.26129 29.2861
6.4089 5.93249 17.4851
3.81017 9.7715 16.8014
4.17158 8.71583 30.0713
12.7278 5.48781 9.66936
8.97506 6.34092 28.1191
8.04371 5.62007 14.6837
8.30032 7.90839 19.4743
6.71223 11.9022 32.4824
10.153 12.9956 47.1949
14.6433 2.92139 9.36957
10.4605 3.63568 5.57048
6.70454 2.04394 7.99108
7.42243 11.2496 20.9446
11.5233 7.22476 25.6121
8.91726 6.49181 26.0432
15.6589 8.31073 26.8119
5.16703 6.21782 30.9458
8.41102 8.19605 10.9949
7.54331 4.22459 30.5476
16.3264 5.98442 5.71621
6.51414 6.60229 19.1111
9.70469 8.49379 22.7611
12.1339 4.68969 12.66
9.63023 3.27772 5.81933
6.9782 1.25106 6.75867
6.2418 2.94794 8.94545
4.9803 7.90286 33.1293
14.9801 13.0391 39.6656
9.1714 6.53061 14.5565
6.0525 2.56665 3.94323
8.27744 4.97855 17.4721
12.5466 17.5514 50.3921
8.51741 10.5532 42.0981
11.9661 5.99831 4.07097
7.44063 7.26002 26.9839
6.40877 6.48367 17.2715
8.80785 5.37443 5.56198
7.04616 5.07238 14.5286
12.2201 9.66207 26.3783
9.95736 4.60354 23.5338
10.3144 6.5255 25.0498
3.93137 3.33888 8.53004
5.60513 1.95658 11.3943
9.259 4.32249 21.2286
9.95948 13.871 28.0923
10.9137 7.12096 36.5737
14.0779 8.97445 18.1258
5.70185 5.3973 19.3189
13.2811 6.02371 10.4871
5.56487 3.25955 17.5774
14.5625 9.82089 26.1785
4.92834 3.63119 10.2257
6.90349 3.13477 18.0476
10.9604 11.5381 33.2319
8.9096 7.61988 15.1166
7.33725 3.89028 12.8734
8.90741 8.69551 28.4364
11.4023 3.2951 7.6711
4.72974 7.38291 33.9125
11.912 6.70953 13.9923
8.66106 3.77067 6.38292
5.00129 4.7581 11.9437
9.97452 6.41 25.4675
9.61602 4.11124 27.0599
6.93589 11.0173 17.6353
4.50061 6.15879 19.5676
6.39235 7.30729 34.6625
12.0606 3.89795 8.58041
13.0696 7.04075 25.5836
6.75775 4.72307 3.39533
7.41091 3.00097 7.6709
8.74409 6.49231 31.3547
14.1173 7.82182 24.3189
6.12873 10.6089 27.0628
7.87153 6.76673 27.9586
4.02178 11.144 33.9008
15.3852 5.21027 11.3564
10.6453 6.83208 26.8603
8.61604 6.49773 19.8164
9.29534 4.83485 13.7388
7.81051 4.2973 17.6332
8.22358 5.45677 20.7434
7.66261 2.91539 19.722
12.4754 4.87075 15.1894
7.08881 2.28053 7.55053
5.54243 3.65224 8.51988
10.0635 5.84473 18.7494
7.58943 6.39187 21.3245
4.30989 3.90508 10.2829
9.8678 3.8501 16.1006
8.5813 4.49209 13.6034
9.90394 3.14719 12.4437
6.87267 12.9097 39.1186
10.9461 3.2233 16.4956
6.28265 7.01218 14.1898
8.44759 4.40035 23.4863
3.09846 3.94978 9.87686
8.04513 4.59848 15.4887
5.34505 5.7079 13.1558
7.62278 7.54231 21.4569
7.61775 4.22839 19.4512
9.80528 2.14821 12.3059
8.02235 5.10381 12.4513
5.95618 9.71386 36.6126
14.4965 3.7822 4.4583
7.25894 6.01158 20.0713
9.4388 7.21081 19.2463
10.1616 5.84944 30.7592
11.5119 3.94356 6.00373
6.85583 5.12357 19.1485
9.7886 8.25435 26.363
8.57017 3.91642 14.6363
8.73639 5.57554 17.0972
5.90264 4.72229 14.872
5.32284 6.98255 21.9176
11.1979 4.57426 24.1784
13.2777 3.86299 8.61211
9.07606 6.62276 22.3613
9.72425 4.02172 22.057
12.9125 8.60196 14.6541
8.11101 5.12689 17.1744
9.38188 3.54967 16.4826
9.46066 7.25685 14.0954
9.38167 6.43355 18.907
4.53681 4.58573 18.5594
5.39884 3.36767 20.5489
10.1498 7.79884 43.0381
6.05562 5.98425 13.1888
9.06853 3.49457 4.56783
8.54467 9.16889 26.211
5.33061 3.85005 14.6542
6.31727 11.718 28.7153
8.55908 3.86938 10.23
4.06329 4.71009 11.4724
6.37149 2.57378 16.308
10.8042 2.72712 8.90128
8.48685 5.68893 10.9229
4.43602 3.34265 17.4798
6.65074 4.17446 12.1759
5.18118 4.19262 17.2884
11.6148 10.1774 37.9046
6.00098 4.24466 15.4409
3.71156 2.46473 7.79422
3.94874 2.74198 6.63905
5.56437 0.826891 11.1298
3.45713 5.60438 15.9772
5.99201 3.56915 9.4511
6.66717 4.63487 9.61375
8.60271 1.58554 5.13529
5.86276 3.03973 11.7768
5.81145 3.4664 14.0846
5.86872 3.51973 15.6223
8.55399 5.62184 22.0508
6.19683 10.2942 28.2276
10.5802 4.82499 12.7617
8.46275 4.17645 18.9603
10.0813 1.61739 15.4531
8.88622 7.23254 15.0385
6.02216 1.65037 9.5704
10.4383 6.65528 14.956
3.95267 1.84656 11.3344
4.86221 4.86249 16.7646
7.69065 3.22517 9.48034
8.04355 1.65763 12.7257
11.5514 3.10828 8.78476
7.49278 1.79122 3.40311
6.90901 4.02537 11.7085
6.75387 1.84531 17.8949
4.03575 4.43299 11.8208
7.95229 2.6441 10.4036
9.54985 7.863 14.6764
4.53541 4.51049 29.1202
8.37256 2.89441 13.9116
11.112 5.10374 9.24816
9.87299 6.22436 22.7822
6.16813 1.11468 24.0059
10.0826 8.65862 30.2899
13.99 11.5927 23.6686
5.68106 2.08401 15.8105
9.76127 7.7586 16.5021
8.18841 5.50293 10.7811
6.92599 4.80533 16.7787
5.96784 2.88503 5.91785
6.08513 2.13856 14.6077
8.71358 10.8255 35.143
3.8831 2.8706 7.63423
4.44796 2.83003 21.3866
4.63789 3.00734 7.35036
6.50535 2.54714 16.6462
3.99918 2.4035 11.3071
2.70107 7.52634 33.1632
9.56152 7.35173 9.78016
6.34945 5.31486 16.8737
6.51385 4.75672 15.9841
9.21602 3.96054 14.5346
6.54788 6.9342 44.0793
5.89306 5.89751 3.72237
6.05682 4.99102 28.4073
5.69601 4.31055 23.7873
4.97127 8.37051 33.0449
5.04736 5.70102 14.1434
5.01574 6.9047 18.9409
6.34578 1.3474 10.8536
6.80575 3.91781 15.1535
9.60518 5.33067 18.7653
5.3504 3.71998 24.3055
3.83974 3.07223 16.4771
5.02395 11.3256 24.3954
6.29095 2.72155 18.4977
2.70795 6.91837 11.025
5.34966 6.19508 14.0234
6.66208 3.82344 12.6036
8.9004 3.4549 16.9989
4.79404 4.10858 7.61717
8.12418 1.98569 17.5931
10.9259 12.6826 41.848
11.3028 6.15564 28.6373
7.05877 4.96238 17.5864
8.32125 3.99324 7.50171
5.70656 1.64241 9.93282
7.3839 2.81577 9.43281
5.32118 3.57296 18.4893
4.41437 5.12709 11.6056
10.0465 4.21017 16.1193
5.99281 1.71079 14.6698
7.34728 6.30004 15.0655
3.42724 3.92343 6.68951
5.9794 3.37585 12.075
8.12214 1.83086 15.927
6.35081 4.01697 14.7876
6.66957 2.25669 14.2118
8.02069 4.31487 5.91763
5.28043 3.6993 18.4415
7.02012 3.51531 19.4735
3.53784 5.86233 9.8873
6.72441 3.15318 17.4204
5.70641 3.52697 10.4204
6.65469 3.32113 7.84331
7.33583 4.50053 22.5342
4.97656 1.8325 6.99815
3.67682 3.73581 10.3727
7.15447 3.26028 6.94661
6.88267 1.72561 9.11349
5.79398 1.50898 4.85185
5.2032 7.47541 27.1344
9.3127 4.5787 21.0064
5.24424 2.07572 5.89671
4.91237 3.2168 15.7921
3.55075 2.66327 8.46196
5.53533 5.10405 12.9342
7.56943 1.33006 15.5323
6.99043 3.56821 10.1355
5.00252 3.3014 28.6761
5.37214 7.49569 14.2815
5.91447 2.96546 4.85143
4.70376 5.81089 24.8787
7.55615 6.6751 20.2961
8.64534 2.65988 16.2723
5.98763 2.92203 14.8691
9.24242 6.33838 20.5183
7.66299 3.31131 16.0145
4.98453 5.1938 9.16413
8.14571 4.6633 20.9412
7.3458 3.1464 18.5489
4.04724 7.73807 23.0546
9.35719 8.85062 26.9302
7.41043 3.95322 12.5048
3.75042 4.78706 24.6865
4.89985 5.63684 18.683
9.0491 2.87388 13.2546
6.19773 1.17769 7.33351
6.34511 6.81194 22.6183
5.01905 3.30536 11.6729
4.27332 3.58883 6.9337
4.68628 3.28323 7.08642
4.76017 3.03593 17.5835
5.82164 3.4543 8.97171
6.20197 1.74089 13.9383
7.48824 5.21915 17.3217
7.04512 1.8955 12.2414
9.3039 1.98359 21.8659
7.74516 6.86881 8.0435
6.42279 1.9885 8.10196
6.36018 1.975 15.9806
6.4881 3.03547 10.9514
7.8764 3.29582 7.20678
5.93063 1.33794 6.5698
4.80612 2.99727 8.27313
6.88559 2.96394 14.8127
6.68106 3.09063 27.9404
8.15007 4.50305 13.0926
6.07534 2.75711 20.0224
11.2068 10.1244 19.7157
4.85853 2.88982 6.77461
5.82767 2.36088 19.8768
3.81724 4.60842 10.2944
6.10017 1.50463 8.69779
5.27273 2.98012 22.4434
8.85201 9.90239 34.218
7.10698 5.91574 16.7363
4.22897 3.85602 18.1429
3.47843 3.1574 12.6212
6.7197 3.86714 10.7581
7.0616 2.90553 6.40651
7.49632 2.0558 11.8125
5.14586 4.75984 19.1302
5.56707 7.00997 24.0979
5.11282 3.93642 9.96785
7.2732 3.72749 29.3462
4.71501 4.04378 10.3648
5.61663 3.50551 8.44639
4.20912 3.09376 19.1569
7.26057 2.61557 9.9013
6.55064 4.21186 13.5996
6.32296 1.39572 3.33142
5.63927 1.56496 18.9277
8.08198 4.62846 20.3762
7.99544 4.66161 15.2344
4.7129 2.86452 8.17034
5.77692 5.52514 18.2317
5.08204 3.68156 14.3622
7.50107 2.15522 7.45419
4.6453 4.51941 14.4252
7.24522 2.15691 14.1734
5.52032 3.51379 9.41371
5.78026 1.59355 12.7737
2.89709 5.70378 12.3574
8.81469 6.00335 25.404
7.88327 4.72739 14.7805
7.41634 2.91893 8.12586
6.01497 1.40699 3.16121
5.62084 2.69131 26.4421
8.14378 6.71778 18.2833
5.53245 1.9325 2.33106
6.30108 3.03031 14.1063
5.57081 4.0248 10.8836
5.2391 5.17463 29.9386
9.69498 2.82447 5.22117
7.3411 3.93022 16.4302
5.28626 1.77468 14.8654
5.23147 3.53898 12.7477
6.21438 8.35188 20.9756
7.79114 4.06699 28.7565
8.31859 3.3272 7.7612
5.60087 3.85736 12.1258
6.34518 2.29503 7.56139
5.43712 4.92793 21.3794
6.43979 2.16794 8.08309
5.52101 3.56046 9.6939
6.72641 1.93631 13.386
6.59903 3.46135 7.21895
3.85469 0.697611 2.37156
3.85493 3.51795 16.8206
7.32373 4.06261 20.3339
6.29154 10.1524 33.4786
8.25037 2.67797 12.1723
6.91524 3.86017 21.817
11.3388 2.24514 9.29277
5.20609 4.40319 24.4082
9.65017 4.28588 4.0574
4.56729 2.8637 12.7194
7.86116 1.6992 13.18
9.74774 4.51912 12.2815
5.86154 2.46429 9.7266
5.76949 3.20738 10.6468
7.94685 3.69813 18.3571
8.30645 5.26716 18.3488
8.10136 5.98195 19.6988
5.42692 2.79819 13.9604
7.40769 2.42029 16.2388
5.97387 8.02975 24.7257
7.52376 4.52818 18.4333
8.15669 4.00154 11.8297
5.13039 1.7551 3.35844
5.24014 2.30559 22.209
8.95596 6.98224 14.5459
6.27175 1.03219 7.1882
6.70063 3.9522 18.5649
6.43847 1.32114 8.44427
8.35515 3.26951 14.007
7.53488 3.07249 13.4299
4.8572 2.80431 11.1965
6.62456 2.41858 10.1845
7.5511 4.65578 12.8748
4.73295 1.92725 5.24975
5.30413 1.93177 11.8448
7.77124 2.39407 5.79228
6.84654 3.6914 10.1111
4.48435 1.4197 19.0055
4.74877 3.77141 16.1293
8.62309 4.23982 7.58067
5.84897 2.38397 14.2739
3.94356 8.9887 29.6757
6.24363 6.77219 16.4062
8.1117 2.38104 9.24143
6.57489 2.93274 14.8274
5.94863 3.71124 7.61897
4.65226 1.96255 15.2215
6.8565 2.96955 20.615
8.73646 7.16642 27.941
4.93299 4.70737 16.5036
4.46935 4.35255 12.7813
3.74707 5.37185 28.8294
5.02532 4.83836 7.9681
8.28455 2.14843 7.60923
6.93211 3.58811 17.4459
4.55203 4.00807 9.38825
4.96578 4.66587 30.5187
7.69108 4.97043 14.4722
9.19433 3.72485 7.60529
4.97025 0.936704 8.71959
6.17165 2.15548 17.3211
9.4748 4.07514 15.4763
6.62284 6.39538 27.3015
4.76246 5.33874 15.2969
4.70498 1.68543 5.0964
6.72755 0.784627 3.87231
5.48193 1.93239 5.6813
5.11042 1.48468 12.3672
4.61428 4.99931 19.6193
8.18474 3.24192 6.74806
4.64788 3.26934 8.55097
6.38511 2.88144 18.9955
8.25525 2.70872 11.0683
8.59802 3.01266 11.0203
5.7807 0.876911 10.2661
6.54926 2.60123 6.9195
6.8119 1.42336 3.6792
5.55356 2.74789 8.17953
6.83577 2.74377 8.20112
5.52318 5.29157 31.5229
7.96098 3.63632 5.79622
6.48883 3.01146 11.2841
3.89254 2.3939 9.71472
4.60597 3.56169 18.7652
6.1668 2.72507 8.47267
7.38017 3.24802 23.3368
3.95563 5.09791 23.0746
8.94659 6.3774 13.9418
6.59487 3.3496 15.2083
4.03286 4.16087 12.7339
7.70932 0.858941 11.2174
6.72177 4.8162 11.7466
3.61259 1.84053 5.64388
5.40321 2.75458 9.79197
3.94127 1.57505 5.33385
5.22135 3.3329 16.3642
7.345 3.21907 13.3739
4.98276 4.15408 9.86089
7.67038 2.39115 26.7082
6.13107 3.66242 11.8364
8.80427 3.31128 3.41367
4.49108 1.9392 14.1397
4.84419 2.06767 10.0729
6.87153 3.25244 3.28878
5.02924 1.87454 8.2474
4.29806 2.85472 7.57618
7.0833 3.35802 20.1221
6.05174 4.80562 23.2152
9.18076 4.62944 26.3319
5.33163 9.28167 42.9387
4.63215 2.98352 10.1304
5.30968 2.48519 13.0947
4.85263 3.7082 14.6214
6.50101 5.83467 11.6769
6.24812 3.8533 9.57952
6.01763 0.453349 11.8508
5.31725 5.45656 39.8579
9.70637 5.81461 7.28854
5.96149 5.2401 16.9091
8.61916 2.35107 5.65234
6.70342 4.03373 10.8711
4.00152 2.33059 15.1792
4.68936 2.04677 8.48066
6.94405 6.72632 31.834
6.34594 5.50057 10.2862
5.28298 6.73506 33.0132
6.55063 3.52151 19.8321
7.10819 3.4903 8.61063
6.45511 5.15503 6.73536
4.12072 4.39369 10.9894
4.69075 2.23927 19.092
6.11188 2.83751 5.15909
6.76726 0.986467 4.54564
4.27087 2.19771 14.508
5.81478 3.12454 14.1964
6.77273 1.8954 13.1322
5.97487 3.26452 13.8381
6.8409 1.90326 11.164
3.7421 4.42077 30.7405
8.66769 4.54919 8.81595
3.29762 7.73487 22.9676
9.49049 2.88612 2.13892
5.06205 1.19483 7.35663
4.74073 4.72855 17.284
7.25322 3.08631 11.9725
7.15012 2.49925 9.7307
5.80937 1.91029 13.0254
6.49897 3.50774 11.8164
7.29181 0 0