# pn-170911/CsIIA-38-WTZR-1280-1959.psd
# Power spectrum* (dif=0,1,2) (really just |FT|^2)
# NOTE: only the first half! (symmetric)
# weeks: 1280-1959
# 5 clock-days, 6 excluded
# PSD: 1441
18587.1 3.53172 0.0192283
2.95533e+06 45.0632 0.00789506
1.50111e+07 256.872 0.0120224
792448 30.7511 0.0111136
2.23859e+06 145.949 0.0166051
320740 36.5205 0.0120934
338379 57.9231 0.0225224
504722 131.128 0.0286797
441770 97.9617 0.0421059
253651 59.2623 0.0407579
132065 63.6342 0.0596993
189780 88.7449 0.0447144
130361 52.2045 0.0608306
105378 80.7596 0.0641503
79712.1 50.2957 0.0446158
66402.5 68.8344 0.0627239
38987.3 51.9222 0.0670037
35496.5 33.9017 0.0555862
34638.8 46.1497 0.0554051
28021.6 27.5991 0.060439
41584.3 77.9167 0.132854
16495.8 25.4144 0.0544249
35231.4 97.6008 0.234318
40088.5 73.5533 0.157805
49444.3 133.801 0.336516
32148.6 84.988 0.236251
25991.3 59.5222 0.17906
20031.2 47.8742 0.198146
19401.4 74.2877 0.334407
28609.7 86.0462 0.35519
10617.9 39.4742 0.192835
17998.1 76.3615 0.422475
15947.9 56.0423 0.266879
11581 79.805 0.460167
15520.7 61.2039 0.34454
9330.13 59.6323 0.357114
11895.7 98.8998 0.620639
12050.8 40.5035 0.24785
12856.3 72.6515 0.513972
6698.91 49.8565 0.412785
12215.6 80.5983 0.616394
10906.3 75.4087 0.601707
12163.3 61.1779 0.507472
4686.51 57.9546 0.506559
6791.32 68.3805 0.668815
9486 71.3553 0.69636
7828.59 102.93 1.06188
5833.83 37.2398 0.377457
8964.97 75.0812 0.91852
12208.3 116.356 1.40862
4403.92 43.8933 0.493023
5052.19 47.3065 0.586472
3838.94 56.7577 0.713631
4703.71 58.5121 0.80621
7146.68 77.7645 1.03193
5060.31 71.2979 0.949573
7171.07 106.086 1.65961
6234.98 81.3258 1.31372
7180.75 96.0213 1.48545
5322.28 78.798 1.44528
5851.69 91.8483 1.55775
6053.11 72.7584 1.2759
6368.91 126.621 2.17304
3120.75 46.8067 0.907345
1840.61 22.8092 0.465832
3900.8 46.3986 0.900919
3533.21 85.6359 1.90232
4427.45 83.5667 1.74378
5435.81 109.568 2.53764
3127.28 59.2056 1.30095
2589.33 43.5088 1.15091
2424.97 36.4658 0.878654
2495.33 55.598 1.59296
2899.59 63.74 1.52969
3131.53 40.5537 0.967153
2020.68 31.8744 0.770264
2378.95 54.5944 1.65672
4407.52 95.9044 2.54091
4202.66 97.9968 2.83176
2006.78 46.6208 1.42238
1135.29 45.5416 1.28878
1964.68 61.931 2.07195
2989.55 72.3292 2.23145
2198.35 40.5519 1.28757
4018.85 109.568 3.95789
2240.69 63.3579 2.56785
3336.25 126.251 4.13253
1707.66 70.1387 2.40608
3907.74 93.1795 3.24824
2257.01 60.2198 2.11762
2090.75 55.9031 2.27751
2505.08 112.278 4.30567
3283.83 98.7366 4.03578
1546.53 36.5636 1.5495
1689.73 48.5123 2.10965
1803.36 54.9543 2.24245
991.264 18.0831 0.896496
1086.12 62.4059 2.50046
1585.03 67.9378 3.19188
1252.26 69.7078 3.24805
938.659 43.268 2.02015
1229.55 64.0516 3.21844
2266.64 72.2926 3.49754
1504.03 52.2904 2.52493
2051 87.4541 4.57021
1659.65 68.5586 3.95931
2153.66 104.816 5.56783
1123.15 36.7298 2.08666
1484.46 41.3243 2.48621
1523.72 77.5846 4.10739
1146.85 42.5314 2.36017
1577.26 85.4984 4.57144
861.012 54.1493 3.31166
597.863 46.9168 3.17064
764.63 43.0689 2.39052
1373.74 54.5398 3.25285
1118.86 40.7782 2.52731
1963.68 107.646 7.26008
1757.52 64.1253 4.28023
602.941 48.6975 2.98499
851.26 45.3674 3.28861
1259.59 61.7465 4.69063
1858.5 91.8517 7.19086
887.717 66.9569 4.54218
1006.16 59.4557 4.08867
614.564 68.5182 4.81088
573.421 57.8723 4.48889
581.814 65.6113 5.47311
633.178 25.5376 2.04167
574.106 32.2438 2.51315
1010.56 91.4764 7.38129
1753.37 114.427 9.46809
738.565 47.9471 4.34208
527.784 55.0721 4.7869
1053.72 52.3756 4.17231
784.983 38.5674 3.2755
1325.23 80.8543 7.05286
427.375 19.4396 2.29879
1324.55 91.1726 8.11799
1279.42 100.2 8.60619
1257.33 102.993 8.95868
764.332 59.0669 5.76682
500.379 25.5936 2.43347
886.829 60.0638 5.52776
501.887 28.3817 2.88951
672.394 56.713 5.1819
502.324 74.9426 7.42991
497.951 37.5351 3.77045
556.247 39.6199 3.75876
193.332 19.4046 1.8998
532.206 56.1656 6.2303
784.559 57.8289 5.8718
915.042 45.8224 4.99711
828.57 55.2379 6.08929
502.305 57.2278 6.76438
684.646 55.8524 6.37987
961.715 68.0353 7.87676
515.168 69.1145 7.931
689.454 75.9267 7.94171
382.377 60.982 8.02434
379.269 25.3501 2.5535
505.817 42.2008 5.25003
831.643 63.2107 8.16554
391.59 60.5539 6.94033
503.262 35.654 4.75092
451.854 79.5745 10.1082
561.888 74.7206 9.52591
574.63 40.7839 5.25023
418.024 49.248 7.11223
642.003 81.1806 10.7105
464.605 58.7755 9.10004
570.755 63.2866 7.33073
337.852 33.4783 4.87707
253.324 30.7715 4.55059
337.393 40.8991 6.42619
289.208 29.0803 3.94876
344.667 37.301 6.19452
479.419 63.198 9.27671
505.279 53.3232 7.33664
842.894 93.8854 15.5433
705.547 87.7557 11.9221
393.737 31.2033 5.50165
390.196 77.0976 11.6342
454.823 60.006 10.0349
220.782 23.9217 2.90726
746.835 118.829 18.7746
410.044 63.3868 9.7998
531.503 83.096 14.7197
237.093 40.1118 6.76091
562.291 97.1437 15.4158
531.135 47.8697 8.18288
725.966 123.381 22.0685
404.27 65.1672 10.0246
102.275 14.6047 3.24669
386.373 74.8475 13.0894
372.177 68.6162 11.0703
264.679 39.8857 7.29631
440.368 66.0151 12.6986
255.908 35.0588 6.03168
383.857 76.8879 15.0303
567.018 99.9708 18.0469
315.126 60.9573 12.3223
192.152 36.9548 6.02556
269.967 42.3873 9.34062
379.474 53.6734 9.42144
273.132 46.0117 8.42985
229.087 22.5104 4.96443
221.217 71.8677 14.2468
133.766 25.2987 5.12884
193.349 23.0633 5.54304
170.36 33.4481 8.52942
694.47 139.793 26.3072
295.006 42.8243 9.28609
241.171 56.8425 11.8666
84.888 21.8262 4.93905
226.052 50.7891 12.7059
210.618 25.8354 5.11895
276.818 60.1808 12.6863
445.112 63.6021 14.8117
381.243 56.8975 13.6123
289.158 49.1658 8.91968
121.587 34.0237 7.36434
247.228 38.5627 9.52321
345.675 60.4625 11.3814
236.863 71.3068 16.258
272.968 35.1173 8.55743
222.809 58.6446 14.9322
319.016 42.6803 10.0216
417.183 61.1524 17.0016
268.366 50.2018 10.9434
263.343 60.05 14.3626
201.693 56.3807 15.0243
292.51 42.6528 10.1977
285.17 49.8459 12.3431
195.224 45.2325 11.8066
468.505 77.9595 22.0094
192.437 58.9939 13.123
162.75 63.1014 18.5969
384.516 73.918 18.3321
191.514 42.0518 12.9747
240.614 48.9969 11.5316
284.736 57.9801 17.4032
252.675 58.1049 15.3004
179.659 26.2879 7.41627
248.993 63.5789 15.552
93.8128 29.8268 9.56653
230.111 63.709 15.713
98.8196 49.2169 16.4273
290.987 70.4314 18.5064
323.331 84.6604 25.196
342.476 57.6261 18.0376
175.872 43.3285 10.7151
187.836 63.529 18.5883
171.607 75.7695 24.7903
188.029 25.9457 8.80555
141.28 43.4062 12.2602
326.72 59.0482 16.3452
226.558 77.8413 25.4676
161.255 30.4835 9.25767
301.483 66.0539 17.9766
184.157 32.4184 10.3544
126.696 33.3424 11.9044
159.733 33.6123 10.3522
299.178 67.3741 18.8357
285.008 58.9581 19.8727
245.637 66.6625 22.6782
84.1855 49.5665 19.3765
331.152 66.2845 18.0265
77.4357 18.0877 7.76104
168.364 46.4625 15.1035
214.477 55.1636 16.6792
131.602 52.582 20.2375
197.537 40.8883 11.9561
107.862 24.2674 10.2238
260.874 70.0026 24.1372
267.331 99.6971 36.3511
212.945 49.7685 12.21
262.643 112.402 43.6731
113.462 16.8442 5.67728
127.152 30.0702 10.98
158.756 29.5803 11.9751
221.74 54.9054 17.5872
52.4755 20.4929 7.36009
184.999 34.9323 11.6765
283.498 68.524 27.828
368.789 98.8759 38.1268
99.8257 33.7666 14.2807
130.018 69.394 24.5713
137.201 87.4367 32.3701
92.1093 23.8355 12.3411
268.175 52.29 18.2951
53.4306 24.1738 10.0856
99.5185 34.6002 12.8059
123.497 28.2456 11.511
138.916 46.8843 18.3123
98.3146 21.0865 9.15822
95.0068 21.7794 11.4128
199.619 45.1908 14.1149
89.6495 31.1729 15.1533
129.073 44.768 17.676
77.2914 21.7923 9.55106
96.5216 25.1016 9.13139
102.839 35.3675 16.903
191.001 44.3912 22.1386
206.934 58.2181 23.4171
119.015 49.6806 16.5101
163.117 69.3876 32.8821
90.6555 40.6887 15.1581
96.8004 21.5894 8.68013
98.1948 34.8708 15.3951
223.442 70.3287 31.2413
63.7797 39.5623 21.9251
316.725 91.3542 39.514
63.241 20.6538 7.13204
79.9639 38.4444 18.6108
114.811 84.732 38.281
151.125 35.4032 14.4036
85.064 34.8342 17.0059
50.4252 18.3313 11.8194
98.0871 24.8518 8.69122
118.523 33.8907 14.4666
169.077 47.697 20.0182
47.3139 34.208 14.9168
44.4722 38.8037 19.6184
165.038 41.3995 22.443
155.721 71.5252 31.7542
89.2855 33.9345 19.7321
133.958 42.5816 21.4954
149.59 56.3469 29.0348
28.0263 32.3984 15.6583
81.7237 53.6937 27.5895
147.887 53.3136 22.0962
196.973 76.6145 40.5493
92.7175 45.7942 22.4764
146.062 73.9856 39.4069
110.513 24.0123 10.0798
73.8963 49.3636 26.7662
130.137 42.1734 19.7475
39.2753 26.8572 16.7442
94.8781 44.4115 21.0543
74.7024 31.8491 16.0527
42.5643 15.3103 10.1015
63.5652 39.498 19.0593
83.0644 40.5488 22.8434
50.6446 10.5794 6.04432
130.973 35.5336 19.488
30.7944 22.7802 14.0617
80.5985 31.0579 16.4231
94.9846 22.9481 9.25781
133.35 42.5468 25.2979
54.7612 32.0667 14.8335
118.601 53.7828 27.5523
55.6248 24.7648 17.1041
104.587 52.7896 35.5997
121.918 39.1722 20.2116
82.8303 33.802 17.9074
142.888 37.7124 19.2389
117.4 47.274 33.9576
154.479 53.7433 32.8344
122.954 45.0362 20.4205
181.413 108.419 62.9253
115.662 48.6691 25.6081
103.131 45.0949 24.6494
68.7977 13.951 9.87147
138.004 55.5886 32.9013
68.0401 49.9108 32.3691
51.4785 24.6644 10.8061
52.6729 23.7177 14.8872
58.0584 45.7139 33.0666
134.528 52.0614 22.4819
100.762 45.8184 31.2669
45.1021 22.2871 10.6041
89.8433 53.3363 31.512
47.4196 31.3952 23.1555
49.2959 31.8375 21.6041
97.6184 35.7287 24.6885
85.2022 28.9132 17.3148
79.6547 27.5605 18.811
105.526 43.5706 26.4318
54.1008 22.0832 17.9557
63.5782 50.3865 28.9266
19.8677 10.8535 6.74554
43.9722 33.5677 24.4056
39.8541 13.5911 10.3864
37.3526 39.9098 31.6664
73.6609 30.6157 20.6942
87.7765 33.6798 20.8816
35.0341 30.3197 23.389
49.4542 15.5482 12.1831
56.8477 27.1947 15.0883
58.591 34.1403 31.5935
95.5719 47.7035 24.7335
38.5999 27.7117 16.3263
89.7885 50.2723 34.0118
71.6476 68.944 61.9732
126.26 49.6672 24.5868
26.5424 20.4406 15.6125
39.8838 18.8134 16.8826
48.5307 16.5051 14.0221
86.0812 44.2074 31.9576
148.609 55.571 34.0541
86.7787 38.539 31.6763
21.9271 8.43 10.4653
56.1967 20.8176 18.5677
82.5165 31.5897 20.696
46.8029 46.6306 32.1863
53.0776 27.9838 16.5254
32.8949 26.8555 24.6409
31.6753 39.4952 26.851
34.8583 26.9683 31.3173
100.125 24.7921 12.9292
149.593 62.1788 33.982
91.0365 63.2332 52.9371
56.7549 22.3952 14.3476
63.198 23.1143 16.2209
18.4928 26.5895 27.6307
85.8852 29.7362 17.4794
86.2689 33.2841 27.5986
68.6483 28.7452 25.5845
57.8288 22.4233 10.9831
108.266 88.4325 62.7249
71.2766 44.347 46.6684
38.8618 25.8901 17.246
60.5528 60.8177 52.4637
73.892 34.2082 29.7324
88.989 40.2508 24.7059
86.0245 35.0055 25.7594
50.7961 18.3087 13.3345
19.4467 9.9238 11.9128
57.0405 28.1572 18.6315
42.0853 32.3851 24.9209
23.7052 11.273 11.1703
62.1552 24.1307 14.5781
41.0807 31.1569 33.229
37.0354 21.576 13.178
36.199 31.9688 28.4261
49.2011 28.2955 22.5347
58.4998 42.7323 40.1307
29.7784 27.8221 21.9763
59.9524 38.6441 33.2309
59.6583 48.7882 37.5998
53.3594 36.2983 25.5369
32.1266 30.8803 33.6777
40.3445 20.2462 19.2649
69.8247 30.6786 28.3884
44.9268 39.2522 31.7757
104.75 65.257 56.7268
92.5742 65.9406 55.8115
47.9555 17.9276 15.191
41.5206 41.4184 33.8713
26.1746 16.7156 18.5797
50.9245 29.0456 26.6722
34.1831 14.6325 9.79056
34.3937 20.8494 23.1307
14.7838 12.0772 18.0386
65.4498 29.7829 21.7066
65.5006 34.4606 33.0567
35.5011 13.0415 12.2326
45.3236 24.0844 22.2328
56.0138 21.4015 15.1816
62.2511 49.9001 41.155
40.6809 15.1559 14.9399
30.2979 5.62844 6.13338
66.3505 34.663 30.5227
15.6217 32.6615 32.5614
50.0593 21.9066 20.5799
26.2303 23.4699 23.7431
55.2783 28.8919 30.2796
69.9502 27.04 27.1974
66.4874 37.4655 30.5737
56.6603 35.3756 29.309
29.8851 20.1472 27.466
38.5518 20.6345 20.907
27.8015 25.1353 25.3357
40.3246 20.445 15.8426
53.2517 25.9352 20.3308
67.7346 41.2501 36.3885
15.4398 10.2775 10.0349
31.8737 39.3872 41.1593
39.723 23.2073 27.3132
25.5057 17.0035 21.8197
66.5434 31.7535 30.3784
39.4322 25.5902 18.9847
53.7771 35.8018 43.3711
44.2818 19.8988 17.9432
49.128 27.8964 24.6425
72.4535 45.2155 49.705
28.5296 17.7357 28.5859
44.3626 33.335 27.5188
18.1231 7.47159 11.8028
27.1367 10.5153 17.0453
37.7341 24.7475 41.8773
69.8839 48.6775 33.0275
68.4097 51.8007 51.1383
58.1552 48.7542 45.7663
29.2772 28.0418 41.0285
24.8493 10.0803 7.40757
17.1665 6.83407 11.0527
10.4234 14.8949 18.8492
12.4811 13.9828 14.6895
45.1681 16.5719 15.9288
31.2664 19.9341 15.7241
21.0746 26.3722 27.1699
53.8485 33.3708 41.6569
23.8919 16.309 20.9802
15.1678 24.8663 28.5651
42.3476 28.8117 30.5873
10.5205 20.2273 27.0083
20.5103 17.8947 21.3325
43.8217 30.9561 33.5421
37.7601 27.0104 22.4758
42.1135 38.2612 53.7272
24.6636 26.6604 20.8051
26.3509 20.5768 23.8252
36.4467 19.3442 22.3589
27.3345 13.0363 10.5335
20.468 28.4135 35.5471
43.2134 24.2224 23.2826
35.2532 23.0291 23.9875
48.1161 23.8466 29.5215
32.1658 19.9564 19.5818
25.593 22.6839 27.1653
26.5451 12.67 9.61735
33.2724 20.9513 26.4947
27.6601 22.1847 19.6368
40.7028 43.2825 51.843
35.0993 34.119 45.0027
37.9084 35.0312 34.2042
31.1835 43.5777 45.8398
13.343 21.2419 32.9537
19.7807 5.834 5.78501
38.5907 25.6629 27.9383
22.2112 36.7366 45.1277
30.7592 35.0743 52.4032
24.3715 16.1127 15.2728
10.2126 5.08333 9.51013
26.8723 13.9152 10.5822
26.0973 26.0473 33.4179
15.5245 22.8549 31.2195
28.5972 21.0844 24.6546
52.5764 21.199 21.0243
35.0542 34.7052 45.5156
17.9496 15.0521 18.458
18.0142 28.6663 37.5288
3.96488 20.0019 30.7079
27.3569 18.7285 21.7304
28.7669 16.385 16.5515
3.65784 9.66153 15.8083
23.589 10.5886 12.092
12.5935 21.1288 27.0155
31.5191 21.3172 31.4988
37.086 13.982 14.8416
36.8297 27.5109 35.3233
31.6844 51.6368 74.0274
36.8512 24.0119 26.6467
33.6369 12.8235 14.064
41.1048 29.5892 48.2174
15.4659 24.0706 31.7629
30.7205 24.1774 24.2652
28.9767 25.1413 33.8817
23.087 21.6985 34.7733
11.5783 14.6687 33.6299
56.2763 44.6942 48.9013
34.4788 44.3686 62.403
17.3547 18.3229 23.4189
30.8954 18.0596 24.7011
24.5012 35.2849 57.8826
29.5305 16.9857 12.999
27.9273 34.6142 49.6457
40.7272 30.5338 45.8894
26.181 22.0557 21.212
22.5243 7.69172 8.73347
21.5191 18.055 17.2179
30.3092 37.8587 47.9017
13.9039 10.0268 25.8993
23.2381 18.2941 22.0942
19.5947 23.7215 39.3074
32.3023 20.4902 19.7736
26.6716 22.824 34.3253
17.0618 11.642 26.9231
20.1086 13.6573 19.8789
24.0214 12.8665 25.2162
33.3471 29.802 29.4328
17.1517 18.9454 21.1162
20.0033 18.041 32.2173
22.9454 21.5358 33.1673
18.555 21.1834 21.4958
23.908 20.1918 30.2204
28.3662 18.7251 26.5592
37.8737 26.6412 36.9295
25.986 27.8569 41.2509
15.1655 10.4878 7.41179
32.7595 31.5117 42.8514
26.8486 11.6981 14.1671
27.4603 29.0762 40.4632
19.0263 25.3393 34.8636
18.7787 26.8111 38.1212
19.956 16.5082 41.2676
19.0812 27.5996 28.4113
17.6871 12.4783 13.86
13.2858 13.8569 17.6129
11.0974 11.054 19.7577
20.9175 16.8604 29.2072
13.6748 13.4045 18.6737
16.1849 24.855 26.3133
15.0596 14.9659 23.2623
29.3287 29.6013 40.875
6.71236 25.3311 29.7179
15.9842 13.84 22.169
15.7321 19.6125 28.808
17.9304 25.6156 37.6813
15.7109 11.5297 23.1922
14.7805 14.9207 26.1688
23.6012 24.8989 29.7097
20.4699 28.2393 46.8276
28.225 27.6741 46.5791
22.5259 10.5698 23.3233
34.5099 37.8766 49.0486
10.123 7.58381 18.0356
17.724 12.9681 18.3894
11.1349 11.3903 22.1162
9.90371 20.895 36.3881
22.0391 46.5879 69.7615
28.568 11.9929 23.0472
20.8818 18.8817 24.5497
33.769 25.0902 25.3458
13.8256 26.2711 42.8493
11.4727 19.0818 48.1177
25.7337 7.56122 13.3803
31.4858 17.9632 25.1563
13.021 16.6345 29.4079
26.6994 26.3458 36.2918
25.6492 11.3466 11.5012
15.0024 15.5526 35.5723
14.9328 27.8416 47.2067
32.5184 19.5408 24.6002
13.7743 20.6737 38.1616
16.3075 6.78709 13.5428
35.4247 22.731 29.6425
9.26082 19.2826 30.9325
19.2551 9.69566 14.9642
17.8078 12.6483 16.8191
22.4115 24.1841 36.7596
12.1888 16.4498 27.9598
5.55344 9.31435 20.9825
15.1103 22.8877 44.7813
19.419 7.61799 19.1394
25.4948 20.5817 23.8938
23.4464 22.8371 42.9904
16.8318 14.1125 24.4442
21.6742 19.801 32.2633
14.9203 13.2259 33.7586
19.2556 27.8795 40.263
17.0292 7.01048 9.79011
22.717 15.8031 33.8601
20.1903 18.3205 29.8445
13.6084 19.6706 27.5512
10.7751 7.22534 13.4217
8.63082 17.4178 30.7988
19.6477 19.9247 32.9418
14.5031 15.4805 31.402
14.016 8.52308 28.4938
23.8793 13.3199 22.3816
36.4092 31.6486 42.6171
16.8834 20.1425 57.4367
35.7132 49.9294 55.3392
11.3938 16.7886 28.6095
15.6453 12.6311 25.6245
23.8267 31.7289 55.5331
14.4674 14.7647 42.8253
10.4786 13.4189 16.7552
11.4038 10.569 21.9523
6.32727 25.0017 46.6941
22.7825 25.1699 47.3252
18.9669 14.5129 18.1264
13.2451 11.1327 24.5714
23.3106 19.3778 22.3954
10.0793 9.02933 24.9364
28.5949 20.7047 33.2602
19.9478 23.353 43.5484
17.4897 13.2444 20.0242
21.5253 23.7488 44.1749
16.9133 21.8296 46.9425
12.41 22.3268 52.2157
12.6538 22.9054 38.6996
23.0421 15.3479 31.4196
8.79913 10.1864 16.8998
6.1347 9.14259 24.0725
19.4667 22.8467 54.2054
19.0822 27.2162 33.5219
17.9835 15.5229 22.3418
3.28896 12.945 35.8053
20.3963 6.01448 8.96719
19.9452 23.0173 42.8911
15.6856 10.5196 18.4396
9.07885 14.2462 25.0788
32.2745 33.5285 49.2674
18.307 16.3582 34.229
11.15 16.8793 31.6691
9.84949 7.68021 14.3721
6.21278 15.8569 44.3188
16.1845 4.83843 15.138
14.6148 20.0785 29.3385
16.6975 11.5072 16.5963
11.3672 10.1996 21.0421
4.58915 10.3008 18.8988
13.5463 15.9979 26.9396
5.5423 7.80388 21.5777
16.2688 24.532 44.7589
23.9753 22.6814 36.5991
13.1823 27.6018 48.4298
14.1751 10.5172 23.0474
4.98381 8.15383 22.0499
13.8527 20.0286 33.8714
7.54639 11.0001 37.1364
26.3458 31.4176 54.6381
8.29266 18.3458 32.3609
14.0397 6.97395 15.5261
19.7392 19.5222 38.8956
10.8 13.5093 27.3196
15.2869 11.5966 24.896
12.2386 8.07384 25.6401
21.7673 12.5477 41.7409
25.1082 12.7525 7.53445
18.9367 19.8219 33.708
13.3666 7.42062 7.81795
22.3497 19.3731 22.4519
12.839 16.53 38.9662
7.61235 7.01313 17.221
10.8146 11.4616 26.8633
18.2866 19.3248 39.302
10.2663 25.0654 57.1672
12.0122 7.96466 16.1056
17.5165 17.7178 25.0553
11.3971 10.881 31.1843
12.2487 12.0101 15.7703
8.04125 5.27248 16.5684
3.55834 6.56882 12.8172
7.60928 6.54922 19.069
14.6826 7.09868 17.0267
20.2018 17.6734 29.773
18.796 11.7495 21.2383
7.47306 7.59531 21.7984
5.30064 10.8473 30.2291
13.7954 17.1864 26.7924
16.3522 15.9503 43.3469
13.5843 10.8719 18.745
7.28562 20.4175 39.4707
11.4069 3.64252 12.4532
11.1594 7.40338 14.2818
12.5234 16.6765 30.2095
8.38906 21.6929 48.3327
10.4021 4.93053 9.84236
10.351 14.4122 22.0952
8.29231 10.1008 27.2985
10.1685 12.2999 43.7438
22.4942 23.1035 34.7636
14.2609 20.2241 44.2391
12.8081 10.3026 12.8804
17.8546 14.0234 35.3874
7.7271 21.0945 49.4406
11.738 10.5372 23.8973
10.1962 23.773 62.4478
10.0995 14.3164 18.0559
8.94159 14.8827 22.0075
12.3807 10.3016 35.4743
6.11316 13.2475 35.537
13.5039 20.5359 32.109
7.77885 10.2041 38.6561
17.7219 15.1304 20.7227
9.97678 7.96049 30.9828
11.6978 20.2983 27.7455
9.26805 6.05935 24.9768
10.2283 5.8324 8.62382
7.2452 6.31421 11.8375
12.6551 15.6982 37.9517
19.6158 14.6453 29.2376
9.49955 13.1674 39.1362
9.15644 15.6569 30.5162
12.1832 7.97462 15.9321
11.4292 13.4626 31.0064
11.6914 6.50367 12.4448
9.13284 11.1716 25.6325
9.16031 4.96369 17.9898
18.5429 24.0181 55.3677
4.93942 5.8805 24.2468
5.83128 15.3352 21.2697
9.14307 4.41484 19.3172
11.8277 21.4545 48.7961
14.1903 15.7391 19.512
7.12896 19.8297 44.2966
17.857 16.1707 38.8719
9.90138 11.7085 24.5574
8.78458 6.1108 13.3138
10.0874 9.68216 35.8888
16.3763 27.0569 54.0462
7.68161 22.0158 36.7773
8.46802 12.0074 29.0276
8.26967 10.7636 20.2208
6.25198 8.64009 33.2607
15.8836 12.3529 15.6169
8.29675 16.0385 54.0949
12.816 16.1559 44.8724
12.6802 9.59356 10.4834
10.1187 11.8826 42.4952
7.99489 12.0016 15.3515
6.56084 11.8457 30.6482
10.397 13.4677 31.1725
14.6757 6.31759 9.58728
10.2398 11.4093 27.2882
10.1516 13.4565 26.1819
4.38197 7.54121 16.2459
5.90823 5.22137 22.3345
13.4217 10.5147 24.4876
8.66148 13.8973 25.5679
12.3917 13.3655 37.8086
14.0492 13.019 26.7584
9.53303 9.37929 24.716
13.3677 14.6886 36.0594
9.66105 6.75262 21.9733
11.3116 13.4537 24.1106
5.43735 7.52278 23.4654
15.2954 13.8922 29.6945
9.73858 10.5329 26.4229
9.0988 5.88662 14.3333
4.77891 6.25042 30.4313
17.4167 12.7131 17.0034
5.85854 15.0938 40.866
8.19389 4.46936 6.83672
4.40111 13.0992 29.4447
8.81788 3.1883 10.2985
9.25053 8.9375 20.4737
5.51543 5.76948 11.8931
5.24609 18.3595 48.2093
11.4157 4.17826 17.2553
9.74052 18.8295 46.1997
12.4053 12.6441 27.9441
10.469 12.5749 25.6519
9.57054 5.72526 19.0602
13.6647 14.2008 28.3714
9.7832 21.4379 58.1061
7.94175 5.55225 29.5081
9.09807 11.1055 25.1769
12.4389 14.1362 26.878
10.8778 10.9828 41.461
17.2965 9.6229 16.7429
12.0032 21.6229 57.0172
8.23986 22.9396 59.4313
17.0781 21.1154 45.2078
8.73501 6.28338 23.9535
6.92903 18.1414 35.4942
19.6226 31.9884 86.3544
14.8282 6.27356 15.8791
4.35925 8.13457 29.5687
12.5103 5.10648 13.1863
6.80402 8.06446 16.1136
7.30939 12.7366 36.363
13.3082 7.87498 20.9511
7.87938 13.6763 34.7786
6.0059 7.49204 24.928
8.78755 7.20272 17.3088
3.69251 10.1702 17.5314
4.28575 12.9799 31.3005
8.95774 9.22376 16.4318
6.73977 10.437 39.7843
17.8103 7.15176 8.4606
5.22931 10.4004 24.8668
11.5626 16.49 52.4474
12.6183 18.7257 61.3063
18.4982 11.7314 27.1705
12.8728 9.70298 14.9016
11.346 11.7969 35.0551
11.1694 12.8554 29.5233
12.9793 10.4884 22.0186
8.98985 15.9909 57.557
9.05745 9.00056 10.761
6.63566 19.9585 41.0944
8.62797 7.59436 27.4883
3.68324 9.74878 26.7269
8.76364 8.61106 25.9824
10.1182 5.09579 15.1597
8.84465 13.4356 42.0692
7.60216 9.11422 27.8663
10.1989 5.08623 23.6476
10.0105 10.1921 7.75256
7.0782 12.8108 57.2979
11.4905 14.3904 24.3959
12.3698 7.72734 14.6175
8.35726 9.9427 22.611
7.12917 4.62557 13.6123
9.92439 8.29727 25.5724
8.04204 8.76926 25.567
8.836 5.81319 28.5464
6.90128 14.3684 31.0827
8.73989 7.59526 17.803
8.76212 6.92306 19.778
6.49015 6.18988 19.6638
5.70418 10.1565 20.0193
4.13008 11.7301 26.1036
5.66031 9.26475 50.6629
5.43216 13.4381 17.9381
5.05442 11.4657 45.5803
8.80912 8.13129 21.4534
9.63574 5.10689 22.9848
11.8611 6.17227 17.0893
7.12945 8.40115 18.3413
5.10268 18.6869 46.0413
12.8202 19.144 51.6794
11.8937 7.82703 13.713
3.75752 8.34575 22.9595
10.5416 4.14105 21.1102
8.06324 7.67295 10.7901
3.47085 14.9322 44.0949
13.0085 7.5422 13.4458
7.39671 5.34105 34.9955
4.40859 12.7424 28.1359
8.43895 6.54935 10.9888
5.8382 8.32064 31.4507
7.47404 20.1444 41.8157
7.44204 4.26397 26.9027
5.82159 7.93647 20.3778
4.30609 4.57655 24.2257
9.28451 14.8756 26.5777
9.13647 5.53986 27.9695
7.10761 18.1274 44.5385
10.1783 6.8618 14.2979
6.8392 14.2788 56.4579
8.37325 5.42713 28.3796
11.8464 10.4649 17.9002
7.82429 7.12522 26.3643
4.86574 5.07288 15.1734
5.4992 9.08254 17.6379
4.82321 5.87271 23.8584
8.66119 7.12392 21.9591
8.33686 10.0225 21.2777
9.03727 6.49541 13.3398
6.66127 4.6649 27.3436
8.40288 5.02845 21.0423
12.5801 11.8205 43.4179
14.711 15.9761 32.5373
8.08122 9.73532 20.6669
7.26942 10.4548 41.6517
10.4221 11.9902 25.0607
8.14441 6.17556 13.8447
7.33516 3.87901 11.9009
6.93266 5.31706 14.8457
9.58282 7.77733 14.6555
5.18138 6.05107 39.3168
6.80214 9.84611 27.341
8.89307 10.3364 20.9238
3.45799 10.2939 33.8235
11.6262 10.0182 42.2583
5.50116 10.4839 18.542
7.48591 7.25424 23.289
7.71014 1.82908 14.4581
9.3577 15.4277 28.4443
7.5622 4.38497 26.0449
6.14837 4.85813 9.49121
7.02258 7.05312 10.6064
5.29986 14.7472 39.4656
7.70647 8.1815 39.1491
12.1315 8.59717 23.7081
5.2111 5.13728 33.6161
14.1792 14.1296 28.3056
8.68231 4.69116 7.27082
7.85362 8.7295 23.8838
8.82075 6.59265 22.822
5.27429 9.12346 27.2974
9.54322 10.1728 20.694
7.44245 10.9523 39.2832
5.41046 9.98517 36.7842
6.40297 6.03989 26.3706
6.79948 13.7397 26.4844
4.79869 3.02377 12.1537
6.9574 7.14341 29.1404
12.4519 9.10361 25.6777
6.6848 5.00086 6.49554
5.41665 7.77035 27.3815
11.6828 13.5354 32.4681
7.84607 14.9544 54.489
6.3051 8.30258 25.5423
2.93525 13.068 47.7066
8.6903 12.6762 26.1631
7.64024 30.1937 71.8181
8.78211 3.68351 18.0912
8.65605 3.87134 23.621
9.56745 8.10315 17.1233
2.19734 8.3618 31.9616
7.78098 7.77833 10.2811
3.46868 5.86368 24.5287
8.62662 14.0369 34.365
9.01924 7.1509 27.4161
8.80922 10.9676 34.422
6.28694 11.5578 49.4676
12.1909 12.3439 28.8772
4.82371 7.49021 27.3266
3.47046 7.3947 15.5492
5.90256 6.50717 17.0204
6.59629 10.5912 50.0105
7.93521 6.54252 10.6529
4.41654 3.94267 19.8418
7.68619 6.72136 24.9269
9.11754 10.1217 28.8907
6.66902 14.6303 35.3769
5.73426 10.9577 24.6167
6.58868 8.91389 36.0333
8.2629 13.4831 47.8096
8.11209 4.61406 30.1825
8.10568 8.19135 23.3941
5.85927 7.21476 24.5372
4.3294 7.60349 21.2271
5.32076 7.03421 24.0783
7.28334 5.83133 31.4617
7.02516 8.56596 30.9368
4.63372 8.61161 24.3574
4.21653 12.8533 27.7864
4.4174 3.46623 19.0235
9.53257 7.50568 21.8736
3.0258 5.75204 17.8253
5.57976 4.89885 12.9844
5.8789 8.67682 15.5986
3.33758 6.22076 43.6639
9.68462 7.78119 22.0935
6.19161 11.0948 36.8465
6.09885 4.70444 11.903
4.47045 9.37327 36.0531
5.37869 11.6786 36.082
3.74991 7.8381 16.2082
3.78319 3.83707 11.8655
4.38186 12.4544 39.1634
7.13034 4.61265 21.5854
2.59774 4.32705 8.36127
5.29772 4.38911 28.9707
7.07423 6.56032 19.7076
4.51881 2.89523 18.4131
4.25871 3.82618 12.6165
5.68962 7.3588 19.5783
8.46064 10.5053 34.5349
5.93053 3.22771 16.7397
4.7148 5.56604 13.1871
4.78217 11.409 38.0521
6.13916 5.35874 20.6848
8.21082 5.88023 20.2869
5.91431 6.19747 14.9991
5.59547 7.27557 34.4616
7.33194 11.0063 19.5771
6.7963 9.68245 37.8468
5.20712 3.28999 16.261
1.57265 3.66895 13.9613
4.23259 9.66725 57.023
11.8125 10.6836 34.9227
4.07231 10.9722 16.3594
3.18608 5.23765 26.5248
7.76696 9.76712 29.5541
6.13643 4.16213 22.8502
2.27695 1.31183 17.434
2.89425 9.10463 11.9296
4.47923 4.60083 7.44244
4.99829 10.7049 44.6231
10.8338 8.11388 20.5895
4.53857 5.57116 21.9485
5.04868 7.59708 18.0904
7.72757 12.1706 29.2314
5.51802 5.18132 17.6908
3.0745 9.64914 27.5451
8.16589 4.98971 23.7199
4.57712 6.96358 25.0111
1.92447 1.46424 8.58031
3.70016 3.24849 27.0727
3.36653 10.2328 21.2905
4.55624 12.8647 59.7315
7.59987 13.7633 37.0981
1.95649 3.42311 9.76201
1.84711 3.82588 15.7028
3.60036 6.27711 13.5524
3.30543 6.67889 28.3087
4.37482 6.60199 27.9447
8.2288 7.94209 7.4014
4.37931 8.37753 23.5283
4.12248 5.865 27.5684
6.07452 9.26718 22.4414
5.78151 4.9489 24.5365
3.65786 3.22238 24.5491
6.64431 12.7724 30.115
2.92396 8.38869 33.3713
5.92524 8.57026 20.8226
5.98602 8.45397 23.2505
4.87337 1.56073 20.0903
4.67737 9.87248 23.7974
3.1273 9.31786 24.006
5.16697 9.56543 39.1683
7.20652 9.34427 22.75
4.16248 8.60318 29.0849
8.66973 4.39669 19.3769
8.14391 9.73523 29.4169
6.03407 5.92162 20.969
7.3281 9.1739 40.5908
6.76795 9.74742 26.4158
4.57375 6.56496 37.7407
11.3291 9.76229 19.4927
5.0102 4.86037 26.8171
6.56375 6.45234 26.8967
7.63294 13.859 46.7599
11.2522 12.857 28.6207
3.28448 3.77978 5.90229
4.29461 3.71637 24.4532
4.89181 4.0037 12.5076
1.91485 9.32293 32.49
9.66276 7.19359 18.2956
3.92664 5.44265 31.3552
6.12391 12.3279 36.3347
6.91248 4.85699 15.1571
1.74353 3.30209 14.5127
4.13583 5.8208 25.4871
3.07663 8.53576 24.7347
7.40717 9.39623 28.2756
5.60488 9.08132 33.2853
4.69233 3.44019 7.628
5.22227 3.26542 18.4919
4.38706 8.10816 36.846
6.8791 3.82723 7.0832
4.46247 4.81428 15.249
4.79537 1.66606 15.8154
7.44239 8.28866 12.2604
3.72657 4.78472 22.0663
3.29215 3.44358 24.2061
4.25308 11.8701 29.8216
6.66735 8.90105 34.3025
7.59911 7.76507 20.1373
3.08627 6.07649 18.5587
4.54007 5.39755 22.3089
5.40471 5.37043 17.6089
7.73576 6.03826 16.5584
3.94106 4.96569 42.0685
8.93021 17.4254 50.7583
3.91244 4.58842 18.8239
4.53295 7.22188 22.3731
5.34362 7.01232 19.4902
5.05966 3.88992 14.5943
4.38604 8.57821 32.1894
7.26201 3.87501 16.5343
6.15827 7.38821 25.5792
7.23324 8.51804 34.7749
7.46059 6.80151 20.4333
3.36705 6.29592 20.3687
7.06329 6.46022 40.668
7.56153 7.24745 15.996
3.32148 5.62369 20.3798
5.8794 9.85739 30.722
5.25082 12.9598 60.0745
6.12923 11.5996 23.9498
6.88875 2.17304 26.8787
7.54721 7.46362 17.7076
6.83382 4.32178 28.9335
7.31872 6.01916 18.0716
6.08233 4.43206 12.1929
5.48102 7.83258 40.5043
7.22173 7.71685 28.6934
3.64339 9.32002 39.6332
5.22788 8.58092 37.8026
7.24344 8.36909 36.6707
7.88003 11.6397 14.3771
5.55244 3.84531 15.286
4.16599 4.55711 29.9776
5.25059 7.68289 18.5524
5.01919 6.96085 29.256
5.47226 10.7799 41.805
5.42483 4.12692 11.4275
3.38714 5.20356 15.9058
5.05107 3.93575 13.8007
3.19708 5.96599 32.4976
6.71029 8.59277 49.1427
8.08503 10.3809 19.86
3.97059 11.1668 46.0502
8.43521 9.60281 19.4469
6.73899 6.81765 27.9332
5.71408 7.51719 21.9668
4.40847 3.66528 14.676
3.70889 3.95954 18.8385
7.47328 4.01683 10.5054
3.71963 3.98082 18.5133
4.63034 3.89592 27.4521
6.91094 5.28994 19.9106
5.40444 8.25169 27.1254
5.22192 6.50081 8.26259
3.51432 6.56676 21.1684
5.77514 2.05923 14.8918
2.77165 5.34791 14.5996
4.68439 8.44236 32.0341
5.28161 5.47029 14.367
6.87812 5.06442 12.2563
4.25027 7.02994 17.6182
6.60223 8.83698 40.2977
3.81179 4.99242 22.5592
5.53176 6.38768 25.2982
4.41057 3.43442 18.667
5.30127 9.56278 28.9478
3.68727 5.56705 20.5189
5.00595 7.91499 31.6696
8.08224 3.25537 15.947
3.71805 5.8273 25.9255
7.68959 4.14203 5.0378
3.25338 4.57004 17.7641
5.83137 5.50698 13.7907
5.07329 7.5887 32.5179
2.13575 5.86446 28.1678
5.55029 4.36846 6.60381
3.32414 3.71827 48.5917
7.64766 7.43473 8.48811
3.47714 8.53606 23.705
4.34563 6.88551 26.5978
7.19942 3.65632 13.8276
3.95604 5.3209 28.0798
7.67741 6.56979 10.4873
3.89873 5.61266 32.0818
2.84567 7.04354 19.2963
7.91674 3.60638 13.4101
5.40816 2.48812 7.1585
3.66656 3.17819 11.1894
2.98514 1.51412 8.64742
3.93595 4.60782 19.0911
5.39698 5.5823 26.8727
5.31299 6.90757 16.9452
4.19617 5.701 26.8635
5.22233 4.70207 13.2934
6.04847 9.98392 39.8989
4.13208 2.28249 13.5426
3.11363 7.84074 30.4697
4.05728 6.79707 12.3696
2.83559 3.81068 20.2128
6.42031 2.3089 5.08675
3.95235 4.26197 16.3024
5.90061 4.46367 27.0438
5.66717 7.21633 36.4862
4.43118 12.0165 16.2141
5.55701 5.38879 32.0833
4.06198 3.48903 12.9851
2.91014 2.54673 23.0959
3.48303 4.1634 16.9589
3.54028 5.92651 8.73246
4.09494 5.5912 20.3324
5.13857 6.87334 18.1172
5.4326 1.83365 7.45644
2.99449 2.68936 27.8432
5.29803 7.04993 17.1212
5.65682 5.87415 15.5625
3.90513 4.42501 20.0789
2.91757 3.46362 34.804
4.92321 6.85778 28.7026
4.68497 10.7748 15.7268
6.93752 4.80842 14.5111
7.2944 5.44516 19.1759
5.09336 6.10513 30.361
2.07106 7.64786 26.33
4.54723 5.60703 11.1951
4.37773 3.44894 14.9326
4.34464 3.13575 25.0571
4.57829 7.26638 25.8864
4.98941 9.84709 27.6679
5.04097 2.37327 16.3482
6.00161 4.26661 20.7524
3.71269 5.36122 12.0694
4.73386 2.51466 13.654
4.17019 3.28077 19.4108
3.85423 3.32508 19.256
2.61022 7.12079 24.2611
6.78094 6.61737 42.103
2.79381 12.5329 22.3131
6.01381 5.27591 14.4748
4.51049 6.86111 18.1885
5.31517 3.47572 21.1337
5.9277 5.59807 28.2614
2.64866 4.1911 16.8645
4.67911 4.12898 17.4226
5.66472 4.23499 28.3555
7.44907 3.27468 9.86829
5.07239 6.71056 21.3108
7.36573 3.67941 19.467
5.89448 6.15233 24.7923
4.9157 6.03777 17.6466
4.20031 3.65643 7.72733
3.49782 1.91032 14.7283
5.33786 5.79187 22.8202
3.60505 2.77372 7.66005
4.44164 3.96281 15.2676
2.73591 4.55894 22.3416
2.02975 6.74318 24.941
5.71505 8.52713 30.4028
7.69608 4.54233 16.7775
1.61346 1.63683 10.3028
3.24013 4.98713 21.9268
3.76863 4.92981 16.2224
4.26712 16.8059 40.5846
4.56817 6.34724 40.0017
5.3464 5.27361 23.0129
6.9822 4.36608 30.495
6.43799 8.34333 24.737
5.63089 7.31338 25.8607
2.60144 5.73358 15.3447
5.42067 7.34162 47.2242
9.11702 9.63986 15.587
3.47842 5.35333 20.0711
4.878 2.62214 20.3057
2.42091 2.67187 11.7459
4.22331 3.94352 18.9712
4.7757 6.22222 10.6306
4.62814 3.28563 5.26064
4.21707 7.93936 59.5894
6.38464 6.20953 27.3698
7.2682 6.36943 39.1967
3.36972 9.52656 21.1427
5.12723 8.31362 34.0957
6.21983 7.22689 32.6245
7.42162 4.8753 21.9263
6.43017 6.3562 11.0642
3.8222 2.47759 19.16
4.54349 7.16071 27.1298
4.14717 8.61734 18.5002
4.50781 4.26488 22.2162
3.46256 4.12922 15.4723
4.20926 9.81588 34.582
7.82077 3.38558 20.8826
4.43793 7.76688 35.7079
6.29375 6.92317 32.087
9.11242 14.355 33.8111
6.30873 5.14051 34.8038
4.3372 8.02827 16.8768
6.94849 3.38148 24.4833
6.93505 4.61716 26.3434
4.01403 5.42644 16.0211
6.16791 2.26831 14.1107
7.05445 3.0588 11.9237
5.97065 2.78655 7.85312
4.43722 3.64122 20.8559
5.87625 3.74573 29.2306
5.85034 6.56014 22.3864
4.76478 4.90927 14.9404
6.67239 6.2191 23.6945
4.34496 3.06166 13.8872
6.03514 5.84325 14.3704
3.08402 7.22095 30.8852
6.0017 5.32346 17.3372
5.59655 7.26054 22.8425
4.36973 2.24359 13.3827
4.86221 8.85662 27.6991
3.27783 5.80639 29.7748
4.35743 2.94995 10.1141
5.60985 2.45501 14.9564
4.97476 2.53433 15.8183
5.21343 4.1842 24.5083
5.29696 3.48823 8.75209
3.69351 4.78002 25.5681
4.6799 9.16504 19.5856
4.67656 7.40749 26.1943
5.96336 2.99477 30.1139
4.03548 6.74359 10.9622
5.26768 5.37884 17.9996
5.67635 6.72552 41.5885
4.67628 7.3157 15.904
6.02422 5.43528 38.3803
7.41004 7.17903 12.483
4.34853 4.40695 17.4942
3.08799 3.3991 18.1424
5.91692 3.95466 12.6336
4.07779 5.15955 29.0038
5.86213 4.66016 17.7243
7.12925 6.00831 21.3138
3.52678 1.80696 21.0898
6.23417 6.94255 20.4851
6.41028 4.37623 26.6255
6.60581 6.38135 9.74541
4.60259 5.81678 18.3575
5.83948 4.10692 15.1
4.27841 4.2124 16.674
4.75834 3.33411 16.3063
3.97869 6.18683 21.3165
1.48036 6.17113 17.1623
5.31352 2.55118 9.49448
3.8955 3.90499 20.9612
4.52809 4.78953 25.8576
2.80035 6.18519 20.1933
5.81617 5.5946 25.3927
4.91956 4.22719 15.7462
4.17042 4.31472 16.0894
6.09891 2.36475 17.4283
5.24928 4.38304 16.6164
4.29442 4.57803 28.7155
6.63411 7.76703 19.63
4.11058 8.40365 17.6609
2.95064 0.590412 16.1751
3.82669 4.70469 18.4949
1.55496 4.65069 15.8072
5.94585 3.05399 35.0538
6.0244 3.0399 19.0756
5.38247 6.03086 11.8191
4.75391 2.89029 7.072
3.51482 4.39049 33.0985
5.75996 9.12452 11.3181
4.60933 9.49945 22.0857
2.87118 4.67921 13.5006
3.56095 4.12697 23.3257
3.44388 6.64288 19.9807
3.73705 5.179 13.4627
4.18554 5.34035 24.9718
3.18383 5.5704 29.1426
2.74052 6.38534 20.3214
6.57967 4.05158 9.61329
2.04343 6.65804 39.4014
6.00053 5.06253 12.2849
5.09283 8.07568 40.1249
3.91667 5.76715 22.0331
6.39244 5.50356 25.0702
2.48885 14.3506 40.192
3.06758 3.6743 31.6139
3.18804 6.94961 16.0843
3.51161 2.75665 12.1492
3.46269 4.81076 30.7278
5.29452 6.57873 10.5591
3.15858 4.67247 18.9968
6.41163 7.46823 39.0933
4.1361 5.594 21.8104
4.69606 8.71975 18.9754
4.92616 1.56897 15.5558
3.44047 5.12618 21.0255
6.83187 9.73012 31.6255
3.48256 5.0533 17.6688
4.26882 3.24679 8.18072
3.66947 4.35016 17.6811
2.1348 4.09192 17.8297
4.61349 1.31113 17.9184
4.56893 4.27673 14.0699
2.49182 3.24969 12.1876
5.4024 3.96352 15.3701
3.00558 8.60129 37.0177
4.51377 5.41022 31.4074
5.89494 7.61702 27.4849
3.32424 8.30976 26.6942
4.95394 4.86789 14.1078
3.17987 3.84723 28.4953
3.46497 4.94487 13.1493
6.4629 0 0