# pn-170911/CsIIA-40-AMC2-1280-1959.psd
# Power spectrum* (dif=0,1,2) (really just |FT|^2)
# NOTE: only the first half! (symmetric)
# weeks: 1280-1959
# 103 clock-days, 250 excluded
# PSD: 1441
41145 1.05485 0.023038
1.55439e+06 30.4598 0.0310802
6.30014e+06 133.478 0.0348856
1.46603e+06 52.772 0.0267849
1.08838e+06 79.6704 0.0261998
516520 50.7281 0.0251588
418626 55.4992 0.0330219
226483 47.6001 0.0361559
214370 55.9798 0.0498776
200808 61.294 0.0496721
143765 49.7047 0.0571625
124468 57.6315 0.0531719
79717.9 43.93 0.0735159
75135 46.6239 0.072561
76962.7 54.7388 0.074411
67307.1 55.6047 0.0910939
55885.4 55.1866 0.0871426
45721.1 50.4197 0.100641
41387.5 48.7342 0.0911804
39005.2 50.4512 0.129319
30544.8 47.6283 0.114529
33159.9 51.5149 0.143653
29941.1 54.3588 0.141506
25638.9 46.7277 0.13865
21776.7 48.0802 0.176382
19415 42.2911 0.159586
20708.9 52.772 0.212107
20599.6 56.1585 0.212085
17908.9 48.0173 0.21866
15173 46.6883 0.208932
14918.5 46.9116 0.230724
14144.2 52.7519 0.250326
12952.7 47.0298 0.253195
13271 51.2946 0.27521
12880.6 56.4408 0.344183
9603.39 45.906 0.288337
11277.2 55.3427 0.388394
10181.3 55.7121 0.377283
9073.28 46.481 0.338662
8512.79 49.4525 0.400019
8368.83 55.9164 0.451999
7675.61 48.7225 0.399392
7105.06 45.2352 0.408945
7612.23 52.2985 0.480973
7149.85 48.504 0.441566
6248.71 49.0511 0.505236
7513.37 57.0651 0.612172
6686.42 52.1876 0.574282
6505.66 52.9067 0.611908
5193.98 46.8104 0.565599
5108.02 51.0204 0.638427
5027.78 57.5359 0.714656
4688.82 45.8583 0.597415
4825.11 52.9642 0.74551
4355.76 46.2101 0.641096
3801.19 45.1597 0.637959
4416.75 50.3557 0.753565
4576.87 55.4788 0.873656
3835.67 51.6376 0.832355
3728.35 53.145 0.894184
4013.55 54.6627 0.94347
3973.58 50.0964 0.914428
3026.63 40.0336 0.815934
3557.56 50.3045 0.966112
3215.01 49.3766 0.953965
2832.18 44.2867 0.921044
2732.59 44.7392 0.957991
2833.39 46.9624 1.05963
3169.32 53.708 1.19695
2751.89 42.9116 1.01317
2966.16 55.4273 1.34064
2957.47 56.0327 1.3378
2589.33 47.4462 1.19279
2010.83 43.1861 1.1072
2420.26 52.5956 1.418
2095.48 43.5043 1.20207
2577.32 57.2197 1.55622
2287.73 50.8212 1.46971
2027.53 43.8895 1.28439
2259.15 56.5789 1.698
1889.17 46.2575 1.43848
2382.23 57.0981 1.83326
2244.84 52.6971 1.73289
1940.57 53.0401 1.72953
2212.24 55.8885 1.92242
1561.36 43.4426 1.49156
1637.33 46.7696 1.67336
1789.98 49.9548 1.80625
1679.93 48.8469 1.85994
1728.86 50.4981 1.89077
1985.81 58.6972 2.20863
1858.98 56.2967 2.28714
1462.93 47.7379 1.83867
1669.8 54.9796 2.30093
1448.55 45.8615 1.97564
1475.41 49.3823 2.0989
1473.89 51.8023 2.28429
1680.7 58.6933 2.58145
1380.96 51.2193 2.33264
1258.88 47.446 2.20406
1111.74 43.0022 2.0944
1128.96 42.4977 2.07433
1549.59 60.8378 3.00585
1210.5 47.7289 2.52434
1197.91 46.5749 2.42651
1194.87 49.811 2.61742
1271.72 53.6383 2.85058
1015.8 43.9118 2.40671
1155.69 51.0283 2.88448
1079.02 48.4077 2.73801
1182.69 51.0143 2.92206
991.162 47.1637 2.74724
930.609 43.6572 2.56981
1159.63 49.9515 3.02749
976.853 48.3426 2.94154
962.292 46.473 2.97562
1044.87 52.6085 3.43578
851.342 44.475 2.91191
961.778 49.4364 3.19159
851.357 44.6979 2.9962
1070.56 58.6389 4.07327
906.829 45.946 3.2402
859.772 46.2894 3.16291
695.623 40.2554 2.92327
801.744 44.1023 3.27986
873.562 53.0735 3.98344
827.438 50.8392 3.88969
790.48 50.4363 3.83044
802.36 49.9961 3.89924
875.77 49.836 4.03054
645.662 40.9731 3.32089
776.183 48.4594 3.9339
763.093 50.3049 4.08304
672.396 46.7258 3.92497
608.933 44.106 3.8226
644.899 48.0868 4.18794
680.417 45.9607 4.05013
611.106 47.4669 4.25092
684.6 48.1848 4.36634
671.454 48.6567 4.6338
630.63 42.0349 3.81655
652.372 52.0372 4.81757
660.114 53.9192 5.03824
649.466 45.1351 4.30147
646.758 48.6501 4.73217
681.973 52.5248 5.37736
573.353 50.0107 5.05215
562.547 47.2918 4.9656
556.36 41.3979 4.20272
603.246 54.8103 5.66317
534.702 46.4438 4.86843
552.257 50.6208 5.50557
556.216 45.3228 5.01597
495.476 44.6788 4.87059
538.429 46.7972 5.17754
511.33 45.6816 5.16059
466.97 42.9841 5.03001
553.476 48.7747 5.56991
492.392 44.1688 5.19123
536.731 53.6933 6.44476
575.583 52.8255 6.20068
529.155 46.0265 5.54685
536.102 46.6568 5.61881
413.007 36.2807 4.60137
431.28 46.1545 5.98458
423.461 46.9987 5.88036
470.371 48.5891 6.27989
444.488 40.4201 5.19656
463.832 47.8396 6.34165
339.555 37.8612 5.00967
457.371 47.3409 6.3314
437.309 44.9574 6.21512
500.559 53.4232 7.4156
427.667 51.6855 7.21408
397.133 43.2047 6.18702
435.29 52.5941 7.31213
446.5 48.2559 7.14773
390.74 41.608 6.04925
405.16 46.4535 7.00309
343.959 38.5944 5.74873
397.093 42.7318 6.48778
346.505 44.8419 6.91907
324.013 44.8749 6.89117
372.724 43.0535 6.81463
290.142 33.7314 5.19862
359.878 47.8414 7.62366
350.981 42.1984 7.11905
361.833 41.7168 6.63589
352.031 42.2662 6.83876
353.316 42.9446 7.13651
371.206 41.5266 6.9212
347.545 48.1306 8.48192
414.584 53.1955 9.03952
327.793 41.3027 7.32625
316.428 42.2753 7.46392
311.911 48.5837 8.62846
328.854 43.2018 7.8744
283.348 40.3936 7.25079
342.448 47.7949 8.79274
291.964 43.3913 8.21299
332.847 46.2133 8.55079
295.986 41.7984 8.05757
271.631 40.9984 7.70909
329.231 45.5217 8.87134
280.207 40.1982 7.57735
317.788 46.308 9.09956
254.161 37.6356 7.64098
257.926 40.009 8.30477
280.303 44.1863 8.86577
257.43 40.6635 8.20959
296.219 47.7112 9.94488
300.336 44.776 9.13095
270.882 42.172 8.55369
284.624 47.9225 9.9663
246.172 43.0623 9.20709
213.434 33.87 7.33376
262.272 41.0513 8.97426
239.11 39.7888 9.0745
261.9 43.1792 9.46104
210.739 38.3936 8.53119
243.822 41.1643 9.33158
198.354 37.0359 8.17586
229.215 40.9005 9.75682
193.756 33.2131 7.63274
220.689 35.655 8.12578
229.477 41.8937 9.96469
231.602 39.6188 9.10565
230.81 37.9812 9.05827
207.506 36.3242 8.99076
213.763 37.1521 8.78857
218.531 40.1086 10.0053
208.98 38.8288 9.96597
239.16 43.8925 10.4735
175.503 36.4856 9.31075
205.88 39.1126 9.76275
203.855 44.025 11.7238
193.199 38.7851 9.81812
208.795 38.6817 10.1929
210.356 38.9084 9.83823
168.316 38.5471 10.6084
190.019 39.2083 10.3362
233.25 52.21 14.1101
208.262 43.3238 11.6432
159.32 34.4779 9.82444
208.273 41.2865 10.917
202.062 45.663 12.801
162.115 37.564 10.7936
178.325 38.8837 11.0585
209.988 46.5977 13.0465
192.489 45.9385 13.5799
197.631 38.3456 11.027
181.086 41.1941 11.78
165.657 36.4203 10.6317
169.836 33.3246 10.0553
162.211 38.3417 11.449
196.739 46.0464 13.8726
162.457 39.779 11.6368
149.349 38.6503 12.2813
180.558 38.4859 11.4171
180.02 44.4282 13.9199
171.434 36.497 11.5456
179.929 39.1974 12.5851
155.436 36.5981 11.5216
176.783 41.1338 13.2192
179.105 41.9288 13.1743
154.108 35.9056 11.9123
181.542 46.1166 14.804
158.237 35.0662 11.7067
132.213 36.4668 12.6406
150.863 39.2402 13.3162
129.173 29.2177 10.1152
153.004 32.3676 10.8988
173.662 43.4678 14.8028
190.999 45.9263 15.9123
145.391 35.0869 11.9473
150.278 37.7564 13.8125
155.032 46.8437 16.7612
137.073 33.2369 11.5081
157.091 42.4912 14.5028
149.654 34.698 12.901
130.455 36.9343 13.4083
138.542 32.5756 11.2339
131.518 35.3831 12.888
135.288 37.0158 14.171
126.758 38.0401 13.1597
137.282 37.5092 14.5344
146.669 38.8101 14.8379
175.192 43.3268 16.5257
118.964 34.9564 13.206
147.452 40.7254 15.1705
126.67 33.906 13.6607
131.175 35.3753 13.363
124.813 33.7832 13.2533
125.977 35.1591 13.8584
138.584 38.4124 15.5784
122.575 37.5991 14.8105
121.631 37.3659 15.426
134.597 36.9994 15.3858
149.314 41.3491 16.2906
118.426 34.004 13.5498
128.7 36.8781 15.883
122.899 35.4439 14.7147
119.596 33.2081 13.3945
106.907 32.9979 14.2311
115.45 33.3485 14.1786
124.01 36.0399 15.6715
100.019 30.8155 13.0568
113.668 33.7692 14.1685
106.627 31.6706 14.1661
132.116 40.775 18.0225
96.3382 33.2665 14.9967
120.042 36.4156 15.7412
110.863 39.673 17.5387
94.5404 30.6103 14.2636
131.327 36.6148 16.3813
95.9994 32.3844 14.7896
109.526 33.9771 14.2204
106.145 34.7345 16.5439
110.873 36.6584 17.5557
101.246 29.6621 13.3002
109.309 40.4918 19.0346
98.1446 31.976 14.5239
104.617 33.5389 15.837
102.842 38.363 18.4098
97.0732 36.2496 17.4511
87.6866 26.413 12.9466
107.194 38.0355 18.0224
108.409 41.6208 20.7448
87.655 30.4304 15.2261
89.1987 33.4657 16.8754
106.484 34.5728 15.8571
76.569 29.1224 15.1957
99.6528 35.0085 17.4865
87.0292 31.0673 16.0561
100.063 34.4294 16.4716
96.0797 29.8296 15.4578
91.543 32.612 16.5564
87.6014 30.9534 16.1741
84.5234 31.346 16.0421
83.027 32.4528 16.487
89.896 33.9503 18.4356
81.1871 36.412 19.2141
86.1488 30.0937 15.4909
88.4037 34.086 18.5986
102.219 36.4787 18.534
82.4509 29.9741 16.5319
105.578 33.9538 17.8021
96.2832 34.8825 18.6552
92.0206 33.9592 18.1628
89.7364 34.47 19.8688
81.3396 32.1283 18.345
86.3508 32.2095 17.9457
81.9399 33.4546 20.1558
86.2426 31.0121 15.8133
65.4578 25.8168 14.975
81.3825 31.7335 17.4871
84.9307 33.4845 19.3148
73.5846 29.4793 17.7924
76.8099 33.4591 19.5322
89.5711 37.5418 21.3126
66.3931 25.9619 15.8368
96.3543 35.0071 19.5224
62.5786 26.4261 15.9884
68.2071 30.9523 18.2641
78.8953 28.2515 16.9784
71.8101 30.3113 19.0432
76.4128 31.6738 19.7579
73.589 31.3446 19.016
91.1222 33.8669 20.5895
77.6436 30.5527 19.2077
67.1645 29.2597 17.0496
86.8997 31.3981 19.4063
52.7747 28.1317 17.2566
78.1349 34.1206 21.8835
77.3905 31.3314 20.3964
83.2365 35.6478 21.7787
79.5024 37.6544 23.1234
63.6605 24.0087 16.1324
89.454 32.4135 19.7203
67.0635 29.7772 19.5287
70.0301 33.1157 21.2852
70.1202 26.8769 17.4645
74.5254 35.3956 22.3192
66.7358 29.8389 20.507
63.2876 27.7196 19.2473
70.8829 30.8643 20.6876
65.7193 32.5092 21.4119
61.6479 29.7051 20.0517
64.9469 26.8214 17.892
62.7839 31.6074 21.3253
77.1533 36.2141 24.947
59.5088 27.2322 18.9495
62.067 24.4192 17.6958
75.1808 31.2981 21.1724
58.8351 27.256 18.3104
59.1391 26.8528 18.7146
59.7784 28.1494 20.8964
59.6707 26.7886 19.7527
67.4936 32.6317 21.863
61.656 25.7749 17.2508
70.2635 33.9553 23.6338
58.538 28.329 21.1018
64.3995 30.3975 21.2412
70.1009 29.5073 21.6464
61.0504 30.7464 21.1935
58.7096 32.0505 23.8054
59.3682 28.5202 21.8429
55.6066 28.7157 21.4398
62.5283 27.8319 20.0626
53.8711 27.6185 20.8248
56.9682 27.5166 19.7199
51.3188 29.5195 22.924
55.4485 29.3933 22.0785
54.9736 24.9718 19.0829
54.3429 24.7635 18.7054
52.6217 29.4964 22.3542
58.9385 28.419 22.6299
59.6643 31.2491 24.4946
59.0971 30.1682 23.9002
59.1988 30.2321 22.4964
57.2217 28.1757 21.5196
62.6491 34.2125 26.2024
55.892 29.8993 23.4237
51.3775 26.8308 21.3972
58.2258 32.1354 26.4596
68.1976 35.1778 26.51
62.546 32.3909 28.4934
50.1754 26.4062 20.3709
59.2955 28.1631 22.2897
60.7436 33.5276 26.1582
53.6931 30.687 27.203
55.8977 25.6729 20.6522
50.0997 28.3075 24.6367
50.7493 25.2563 20.6308
53.1371 27.4155 21.772
48.0691 27.2206 22.7529
49.9871 29.4893 24.8851
49.558 22.8749 19.1425
46.9922 24.6193 21.0119
57.8274 30.4932 24.9609
44.2103 21.47 18.2713
45.3818 24.6156 21.3585
46.2981 23.3451 19.5109
39.7034 21.2736 19.4418
53.7703 32.1785 26.921
39.9238 25.3934 22.5823
53.9702 26.4994 23.4896
45.0018 24.2668 21.0167
47.5491 25.29 22.9302
50.4938 28.3486 25.1465
43.5411 26.9655 22.292
41.7279 26.0601 25.1351
47.9363 26.9865 24.2577
52.5771 31.2479 28.4024
46.1505 27.3311 23.7512
43.9139 26.785 25.1699
49.7787 26.3715 23.3249
45.0542 26.8726 23.4608
39.9417 24.7837 24.1657
43.086 24.4095 22.566
49.3211 27.5642 25.2249
45.6627 27.9962 25.2986
40.1798 23.6272 21.21
40.8706 23.3362 23.5473
48.027 28.923 26.0086
43.9499 23.2922 22.8018
42.6998 24.6106 23.4247
43.9828 28.6608 27.6645
46.376 25.6775 24.2192
45.7126 28.1305 26.3018
38.7133 25.5981 26.1093
44.098 26.6888 25.6442
41.3798 30.844 30.9863
46.7313 23.6846 22.8053
42.4828 27.3162 26.6113
38.189 22.503 20.9878
38.6515 27.653 28.5069
42.3741 25.8493 23.594
34.7665 23.6319 23.3444
39.9509 27.5608 28.6403
45.318 24.7953 24.3814
36.5666 22.5473 23.7512
36.9452 24.2043 25.3005
41.2522 26.6209 26.1518
39.184 26.0196 26.7407
39.3824 26.5143 26.7486
32.2548 21.7077 22.174
36.1657 22.5275 21.7405
36.8844 24.0885 26.3474
50.1711 27.0575 26.6985
35.3315 23.3523 25.4756
39.1961 22.5965 22.7846
39.5013 22.7139 23.4382
36.4446 24.6305 25.898
35.5092 20.597 21.935
43.5826 27.6335 29.0391
40.8506 27.9097 28.8076
42.1239 29.3364 32.4571
34.3739 21.5194 26.1823
39.3455 25.4087 24.3173
38.0322 25.8099 28.3527
39.357 25.5836 28.0934
41.0551 26.279 27.8476
34.0404 24.2558 25.7359
39.4246 22.1999 23.0331
42.1346 30.5741 32.5629
36.6358 26.0207 28.8987
30.3052 21.1294 24.1773
34.2687 24.0316 27.65
31.3458 21.0206 24.1981
33.5033 20.8187 21.1523
37.6849 26.7746 29.4879
30.9409 21.8063 26.9175
34.1549 22.5692 25.9626
36.2513 23.0184 26.4124
36.8585 26.5013 28.2756
29.3465 21.915 25.9349
30.7036 22.3269 23.7637
30.7778 22.1216 25.4913
33.8255 21.6349 24.942
32.9781 22.8501 26.0632
29.4041 20.7944 24.8544
33.5215 21.6486 25.2476
27.3254 23.0422 25.3068
31.9188 25.0725 31.6561
32.2263 20.8045 24.7929
30.1623 25.0123 31.4674
37.337 23.3088 26.0151
28.9847 20.3114 25.0567
32 24.2953 27.4669
33.7343 20.4652 23.0022
28.7368 22.4464 27.8639
32.2182 22.1315 26.2152
29.8715 24.5322 28.6627
31.6292 21.6883 27.9285
34.1509 20.6072 23.3139
29.3901 18.2667 22.4231
31.6496 24.3171 31.9823
33.185 21.6612 24.951
28.8405 21.226 27.6032
26.5818 22.4443 26.9805
27.2128 19.5797 22.8525
28.0392 20.6292 27.3507
27.1004 22.3253 27.0607
28.6082 20.7519 25.7777
26.9829 22.7917 28.9345
32.1327 22.9509 29.4857
33.3189 21.9549 26.9881
29.6978 21.9399 31.5051
31.7328 25.0684 29.7891
30.1664 25.1019 30.0045
25.5877 19.0235 25.696
25.6457 19.9773 26.4276
29.4019 20.283 27.2019
29.1018 22.6358 28.305
26.5906 21.4214 28.1125
30.0617 23.8392 28.276
28.2424 22.9057 30.324
28.6107 19.7331 26.7219
27.8189 21.7309 27.7034
29.2808 22.7562 28.7982
25.3447 17.499 24.8378
29.1826 24.5497 30.7548
28.0201 20.651 28.3231
22.964 18.395 27.8757
25.8948 21.7246 28.704
28.7839 21.0294 25.0254
25.864 17.3549 24.3372
27.4331 22.9081 29.9508
27.4469 18.8016 25.8313
26.4081 22.777 30.4176
25.1638 19.0303 27.1902
28.8049 22.2859 28.2219
24.7529 19.9204 28.9606
27.8036 19.5197 27.2425
25.3746 22.7253 30.1272
27.0137 23.2326 33.7214
28.4112 22.9023 31.4372
25.3218 17.4555 22.9663
22.8985 18.0818 26.6227
26.3467 18.183 25.1088
23.5353 19.1186 29.3806
30.3133 21.0077 28.8575
27.1587 21.8266 30.8347
31.2609 24.4619 33.6682
28.4064 21.8279 29.1711
23.2764 17.2139 24.8732
22.0635 19.0855 27.9693
26.4836 19.2291 27.7145
20.3704 16.0258 25.0892
26.8572 19.392 27.2426
24.4826 20.3538 29.23
23.2574 16.9104 27.3375
26.2758 19.164 26.0104
26.9591 21.3365 30.8888
25.416 18.7399 27.9395
22.7915 16.2731 23.3583
23.1247 17.6307 25.0322
23.471 23.0307 34.2713
25.6254 21.4237 32.3579
24.5673 22.9531 32.3416
22.7925 21.4638 32.7234
25.206 21.248 32.2501
23.9948 16.5631 24.049
22.7384 17.1501 27.2699
24.8336 22.2634 31.132
20.2293 19.4366 27.973
24.7973 20.3132 32.7685
23.3936 14.6753 21.9353
25.2989 19.9319 29.6531
27.2547 21.4319 30.3184
19.3737 17.7744 27.4872
22.7253 18.481 28.8968
19.2192 16.2472 26.4712
23.9943 18.4944 29.4101
24.2377 17.3786 26.7965
20.766 17.6725 25.7483
21.7952 18.9395 29.475
22.4627 21.4326 32.2549
20.9746 19.1359 32.6295
24.0143 21.4884 33.9349
21.5793 19.3326 33.9401
24.3791 17.9409 26.1363
20.9828 19.424 29.9618
24.4771 21.6341 29.9386
20.7151 16.4215 28.8332
22.8448 22.3966 32.0676
20.6036 17.9043 30.2817
19.1875 19.8002 33.4498
19.4367 20.2082 33.291
20.6096 15.2732 25.1296
18.715 17.2914 28.2826
22.2549 20.6117 32.4087
20.3771 20.2478 33.7112
21.4812 24.0398 40.4992
25.0939 17.5704 29.4652
22.0726 18.0423 28.2217
20.9162 18.2999 30.9181
23.3633 20.6797 32.5823
23.2285 20.3 34.9703
23.2449 17.7378 28.7182
21.5335 17.6497 30.6133
21.1761 13.8784 23.1312
17.8582 19.5641 30.4494
22.0462 16.654 24.8338
15.419 17.3754 30.9685
18.5481 15.2967 26.8456
20.9805 19.2637 32.0532
20.2235 16.9363 29.3648
19.5051 19.9418 32.487
18.7204 17.1443 27.3689
22.6555 16.8504 28.4094
16.7464 17.0054 32.36
22.4111 20.3004 30.4242
18.0193 17.5871 29.7415
18.7511 17.625 28.8505
17.5548 14.8222 25.5433
16.5822 12.7088 24.0938
17.1011 16.2123 27.195
19.0317 16.9363 29.0879
19.6326 16.2766 27.0847
18.1788 16.8916 32.6053
19.1919 17.7552 31.8874
19.9164 18.302 29.494
19.9274 20.1859 38.1423
17.4366 17.035 31.3796
20.2756 15.4922 26.0621
16.3243 17.0105 30.8641
21.1359 20.3408 35.0883
19.7777 16.5279 29.7667
19.5862 16.1041 27.7476
21.548 20.5025 37.903
17.034 15.372 26.4032
17.765 18.6818 33.9837
20.2471 15.8821 27.2481
16.9059 15.186 28.2689
20.4445 20.9772 39.3269
17.7395 14.5217 25.5722
17.6766 16.2617 29.9848
17.8318 15.3194 27.8889
18.7351 19.0591 34.7018
15.7978 16.0125 30.5935
16.0819 17.0323 31.066
18.4081 17.2163 33.7976
19.3204 14.237 27.0072
16.3531 15.9692 26.583
15.7394 16.9536 29.4553
16.7853 11.9414 24.1513
17.4966 14.7616 24.9338
17.4174 18.1186 36.5003
20.4265 18.7411 31.307
15.8449 15.7849 29.3773
14.6784 12.2095 25.5399
15.0576 13.299 26.8208
17.7631 15.7435 29.1113
17.967 17.1883 29.084
18.101 14.6001 26.3055
16.6568 15.447 31.3604
18.0978 17.0691 32.8288
18.4044 14.5039 28.7543
16.2941 16.5245 32.858
16.9584 16.5072 28.3652
17.6057 16.0092 29.8444
16.5418 16.6266 34.438
17.786 15.8079 29.566
17.0824 16.2382 34.45
19.0091 18.3172 35.7818
17.2408 19.6826 37.5664
15.9114 15.3564 31.1848
16.8624 17.1947 29.1209
16.1698 13.2853 30.5134
17.8685 14.063 29.3981
19.3441 16.0189 26.933
13.3637 15.4178 34.6769
16.7807 15.3415 28.2133
16.6913 16.6418 32.6583
14.7345 18.1336 34.8345
17.7977 16.6406 33.5748
13.641 17.7146 38.5641
15.2479 15.4513 28.3109
14.7797 14.2622 30.6005
19.2271 18.8353 32.1568
13.0425 16.7986 32.7211
14.7196 12.9053 27.1753
15.2712 17.6673 36.0394
17.483 15.8686 32.9346
16.5286 15.0338 27.7128
14.9903 13.9192 30.7235
14.8352 13.3433 27.2022
17.0371 16.7899 31.6481
13.5755 14.6775 31.1941
15.9265 16.0282 31.8543
17.2336 16.7038 32.4209
13.511 14.2416 31.1257
15.6236 13.8867 25.8069
14.5335 15.5935 32.2239
14.3424 14.3507 31.5828
15.5834 14.201 28.7607
14.3781 14.3082 29.4745
15.5973 15.2021 32.1249
16.1974 15.4404 30.5409
14.385 17.0731 39.7731
14.698 17.0993 34.8649
13.3294 15.7461 32.7421
16.1527 14.1623 29.8822
14.9477 13.4551 31.2908
17.1558 19.0915 38.2366
14.3218 11.5096 22.7472
13.5021 15.6041 34.6259
14.0223 13.4596 31.1004
15.1994 14.5979 31.2891
12.9378 13.9837 26.9457
13.7392 16.1124 35.9535
14.3814 13.6435 28.5572
14.7583 14.4925 30.9497
14.0689 13.1053 29.5159
15.3144 14.9373 37.2016
15.1398 13.5959 24.4985
11.6944 11.6456 28.3459
17.7171 14.5314 32.4189
15.3436 14.445 30.5881
15.3601 16.3093 29.8467
11.871 13.7469 28.9938
12.5126 14.2381 28.9255
13.7368 15.3165 36.5026
12.9079 13.9703 33.8696
15.004 16.0125 33.8494
12.133 11.835 28.9039
15.9331 15.1424 27.621
15.9002 14.3446 26.8861
11.1915 12.8244 31.7876
13.9735 13.0843 27.9208
13.7 17.6136 38.6453
14.8656 14.1502 33.7989
13.1485 13.0715 32.9292
16.4198 16.4073 35.1805
13.0577 18.4313 39.6646
14.8806 15.0741 33.1415
13.3538 14.6243 35.4961
13.3557 12.3172 28.6459
11.8407 13.1564 27.8437
12.7754 13.691 30.3985
13.23 17.6679 40.0057
15.1581 15.2425 32.6102
12.6843 12.9025 33.203
13.8774 14.0418 28.6131
11.7522 10.9851 26.8975
15.0091 13.1913 31.4632
13.5186 14.1139 35.3845
12.3332 15.4913 34.0163
15.4564 10.6826 24.6742
12.7757 13.7461 32.1355
12.5865 15.001 36.6299
14.6644 17.0248 34.1691
14.1378 13.089 32.6151
13.3478 12.9073 27.8734
11.3084 10.2084 25.3239
12.1974 12.5129 30.0655
11.8331 12.4893 28.3401
14.1723 13.2114 30.729
11.5433 12.6638 27.39
12.5816 13.3369 33.052
15.2201 16.1811 43.8643
13.9578 14.358 29.0357
11.5112 10.0188 24.8563
14.9983 11.8743 25.2426
10.2413 10.5579 27.0668
12.2267 10.5536 24.442
12.3173 14.3789 35.316
12.9935 15.306 33.9953
11.6942 10.5947 28.484
11.9656 11.6514 24.3649
11.7039 13.8871 35.3898
13.7466 12.3393 31.0622
12.8257 15.2774 36.5963
12.5863 11.1974 29.5527
13.8297 12.8288 30.6411
13.8349 12.0963 24.1215
11.8115 11.1188 26.4388
11.5994 11.5139 31.2638
14.8371 14.1383 34.689
12.1097 12.6646 30.6613
12.3938 14.5341 31.9815
13.0433 13.2191 32.2173
13.778 11.8044 29.067
10.9163 11.9223 32.4564
12.0039 12.6355 32.2077
9.9702 12.3318 31.8213
12.285 12.7704 32.7178
10.7644 15.0386 37.6189
12.743 15.3291 31.2226
10.2196 11.1957 29.453
9.25426 9.8054 26.6628
10.3434 11.0305 28.2488
12.3483 12.5027 27.7532
11.3333 13.5179 35.2829
11.6364 9.71573 25.2237
12.4363 13.7435 35.5474
12.584 12.4989 28.8763
12.3088 11.5547 29.2981
11.4569 10.2251 25.0249
10.6454 10.7161 26.5197
9.25793 11.2095 25.5351
12.3912 13.1677 34.1015
13.0466 13.4392 35.8256
10.9665 12.8175 29.7112
12.1878 12.1535 32.1215
10.7549 12.372 34.2653
11.1007 13.0405 30.5146
10.6576 10.4641 27.5738
13.6022 11.8401 27.7095
9.31026 12.1575 29.2912
10.5793 11.4227 30.9273
9.28659 10.1379 29.3232
10.822 10.8129 28.9087
10.9982 11.4298 28.0236
10.6343 10.9386 27.5406
10.5947 12.062 29.4426
10.1386 10.6155 27.4628
11.3392 12.9244 28.3692
10.1516 13.3265 39.4718
11.7628 8.41444 24.0188
11.0483 13.4315 35.9803
10.6894 10.8543 26.9165
10.5839 10.8362 28.3497
11.6918 11.1419 30.4449
9.6447 10.988 26.7977
11.225 12.4828 31.9848
11.9395 14.5072 36.3703
12.1011 10.6401 34.5548
9.96113 12.6447 35.3398
12.8037 13.5642 37.1136
11.5844 14.9599 35.8223
10.9456 11.4762 26.2469
12.8847 13.8034 34.9567
10.0881 8.88252 29.4371
11.1865 11.4247 27.5676
11.8558 12.0215 39.0297
10.3578 11.7383 30.8119
10.4975 11.7646 31.9984
12.7498 11.8292 26.2415
10.0552 10.9162 29.1602
10.4719 13.3239 36.4158
10.5236 10.1488 27.0761
10.798 11.8692 34.5773
9.76765 10.296 25.3344
9.85068 9.56804 34.4389
11.4059 12.6404 30.4773
12.1416 12.5879 28.6907
10.1068 11.3661 29.9417
10.7365 11.0633 29.241
8.45366 11.1053 33.6824
10.9718 10.2364 25.5488
9.49042 11.8404 32.7424
10.2636 11.7705 35.6389
11.0355 12.123 32.0529
11.3991 10.8587 24.6985
9.41242 9.05704 27.2762
9.18729 9.77089 30.9373
12.2865 11.0823 29.7273
11.6882 11.0428 30.4384
12.3698 12.2492 31.0889
9.07089 10.8299 30.5172
9.17582 9.59417 27.8692
10.3 11.6403 29.5509
9.68397 9.03421 25.8609
10.0111 9.89098 31.3807
11.6514 12.2937 32.6912
10.1176 11.4538 35.5545
10.4031 10.4403 27.4527
10.5538 8.686 25.2271
9.67239 12.4583 33.673
10.84 10.2877 29.1728
10.0139 10.6432 28.455
9.86963 10.6723 28.4844
8.73782 9.85992 23.5251
9.7422 10.7933 37.3904
9.90748 12.0939 28.7015
9.58265 10.7587 29.2374
9.89756 13.879 43.5908
10.9462 10.8245 31.1052
7.95592 11.1701 33.7843
11.1918 10.0256 25.5231
9.63095 10.3347 29.7084
9.62222 10.1714 26.5937
10.2462 12.2281 37.7857
8.40448 9.13162 29.0225
8.95238 10.5915 28.5602
10.4323 9.23966 30.3602
9.74938 10.9385 31.5399
8.9514 11.2369 24.7258
9.84683 10.7135 29.0291
8.71229 8.60839 31.9203
9.81005 10.8468 28.3589
9.98302 9.85122 27.962
10.1192 10.4983 30.9052
8.93354 9.54134 31.2064
10.2653 11.9304 32.9348
8.92884 11.2024 33.6649
10.008 9.49356 25.3027
8.60383 9.59812 31.572
9.99728 9.77822 29.3907
10.0112 9.53764 23.5089
7.05869 9.64968 28.0241
8.72611 7.73846 27.1056
10.1326 13.7467 34.4301
9.86033 9.4683 27.9498
8.88084 8.43372 25.6624
8.5727 10.5392 32.0208
7.38434 11.6311 35.7184
8.99779 8.61166 26.0517
8.74295 9.1451 28.0638
9.20767 9.26785 29.869
10.1069 11.709 35.5247
11.3789 12.011 33.6669
8.58546 10.3456 26.1185
7.59309 10.893 33.3038
10.0336 8.92064 25.0377
8.43837 8.6436 27.4347
9.0455 9.08913 27.0876
9.83902 10.3951 30.6998
8.84436 9.63189 30.0567
8.27086 8.20406 27.5711
8.20551 10.4512 28.9515
8.22073 9.33856 36.8992
10.5848 12.6367 31.3864
9.11686 10.3469 31.9219
8.55632 9.6869 27.402
8.11446 10.6976 32.3446
9.39579 10.305 32.9919
10.0921 12.5608 35.4832
9.11434 12.0173 38.4849
9.47122 9.20531 28.2785
9.52335 10.2778 38.4257
8.69285 10.6489 34.9569
9.57281 9.84235 26.2692
7.84177 12.0815 33.7788
8.1402 8.64766 23.8523
7.04294 9.83022 27.4211
8.12187 8.88266 26.0881
7.8111 8.32856 27.8105
8.80356 8.27072 25.8808
8.68282 8.80736 27.1184
8.35421 10.0566 30.0438
8.03395 9.49635 30.9225
9.73191 7.66947 20.3677
7.89059 9.58415 30.5904
8.62102 10.8013 39.0288
9.79543 11.3469 28.8686
8.74394 10.5835 33.2975
9.09156 9.83094 33.6862
10.594 8.39605 22.9731
9.5373 10.2067 30.8624
8.75505 9.17514 32.1413
9.88974 9.96699 29.0997
9.01185 9.21756 28.7823
8.39765 9.56083 29.4882
9.72472 8.72478 29.2967
9.16067 11.6319 29.6743
8.05456 7.48476 26.4153
9.86231 9.91924 31.2164
8.7908 9.11503 28.0037
8.88102 8.69995 25.3492
9.00612 9.05209 30.6348
7.30548 10.9606 37.9971
8.82149 9.75103 28.2152
8.09968 8.12396 29.6196
8.44087 8.65156 29.6077
7.73062 9.40873 26.7654
9.03618 9.05295 27.4131
8.78681 11.7228 33.7585
8.78844 8.81885 26.0204
9.01983 8.88687 30.005
8.90816 8.26895 30.1614
8.6953 8.48235 27.7373
8.14745 9.35719 27.879
8.98402 10.1021 31.5723
7.99584 10.2586 32.0063
9.36696 8.56209 30.1891
9.2061 9.07409 28.1402
7.15585 8.73803 29.7922
8.86032 8.82131 28.6112
9.76635 10.3692 29.4617
7.66187 8.34854 28.8298
8.52773 9.39982 29.866
8.34221 9.48357 29.9887
7.76718 8.78697 31.8073
9.08482 7.73315 25.0226
7.76108 9.37833 28.2002
7.98503 8.83459 31.6848
8.04709 8.40777 21.0639
7.94292 9.32156 30.7907
7.92393 9.70882 34.0988
7.84226 9.2269 27.7875
8.11028 9.37288 28.8688
7.88719 7.8994 26.3663
8.25443 8.12625 28.3543
8.39907 9.67099 31.3701
8.37275 8.29391 27.3292
7.76599 9.56129 30.4562
8.00016 8.25596 30.1289
8.76247 9.6475 29.1349
9.18036 9.76413 33.2591
7.60881 8.9422 29.4027
7.35592 8.53718 25.4666
6.82872 7.35071 25.8647
6.69624 7.81594 28.4342
7.4918 7.90353 21.4775
8.15781 8.72646 29.0132
7.26166 9.77282 33.6341
8.17104 10.2134 38.0906
8.13602 7.84993 27.7918
8.9106 7.84073 24.5457
7.29682 10.0313 30.8056
7.20612 7.68961 32.2704
8.8444 9.29826 22.7976
6.73367 6.50601 20.7594
8.37074 8.75382 31.0146
6.7296 9.21688 25.4584
6.26369 8.25056 32.8458
9.36146 8.05158 28.6725
7.43758 7.9519 22.9835
6.65428 6.64723 25.0003
7.98433 7.22262 24.0656
6.43323 7.35084 25.9089
8.222 8.96733 27.5025
7.08062 6.29479 22.7352
6.85875 6.51476 24.2935
7.20147 7.17626 25.1066
7.24905 7.51206 26.9578
8.29044 11.8777 36.8059
5.71397 8.68845 29.9848
8.97445 7.6375 28.887
8.12176 8.71281 28.0261
7.09031 7.0461 25.5171
8.0117 11.0174 32.6524
7.71895 8.50119 27.8358
7.88 6.91953 28.0074
7.36267 9.41562 25.6791
7.45889 5.97545 23.17
6.23871 9.18623 31.658
7.51969 7.98216 27.2558
8.94619 8.50145 31.9122
7.02208 8.15097 23.4023
7.53214 9.11468 29.0496
8.04779 8.77874 25.3731
7.25512 6.93537 24.9161
7.94031 9.03995 32.0049
8.33212 9.82973 31.3593
6.66345 6.54253 28.2985
7.56146 9.05867 26.8737
7.98393 7.79216 28.6313
7.19217 9.80804 31.5204
8.05073 7.09957 28.5277
8.05708 9.17314 30.53
7.87089 8.68934 33.2297
7.50162 7.92072 29.4409
8.92034 8.69558 30.7648
7.06928 7.216 25.4397
7.40223 9.33901 29.4616
8.04346 8.83927 32.1903
8.0326 9.1448 29.3346
6.02779 7.78034 27.9186
8.58651 7.02311 28.695
7.80681 7.20583 19.7969
7.01273 8.99323 26.6447
7.7644 8.28395 30.5893
6.73361 7.8891 30.4069
6.60781 6.66025 26.9448
7.96279 8.33034 27.394
7.97408 8.25067 30.4658
6.37839 8.27187 28.6611
7.58917 8.21364 24.4241
6.7115 6.36165 22.6073
7.37752 8.09001 27.6546
7.11977 7.59011 28.7676
8.28125 7.79224 24.4592
6.99772 8.08151 25.7535
6.35669 8.14637 30.1361
7.56055 7.57691 29.5756
6.7236 9.02282 27.885
7.38611 7.13744 29.0904
7.24894 7.90198 25.3218
6.88021 8.07235 31.1059
7.5336 8.27409 27.2559
7.38531 7.90146 27.6534
6.78637 6.56882 27.4727
7.47486 7.7195 30.4006
6.09566 7.46262 19.5043
6.34003 7.79109 31.3914
6.70981 8.01222 26.9299
6.70314 8.01904 28.1267
7.87182 8.16717 29.2583
7.78667 7.8811 22.6308
7.20432 7.48868 27.88
6.77735 8.17828 28.9075
6.95762 7.25564 24.5922
7.51207 8.607 28.6354
6.93364 6.89509 26.3804
7.09939 7.45806 31.9966
8.11517 8.58504 32.319
7.55328 7.47244 22.4132
7.07803 7.1489 27.1827
6.56048 6.60902 22.7924
7.12755 7.47543 28.5576
8.5387 6.83152 25.5406
7.14503 10.0517 37.6928
8.48091 9.06015 32.9985
7.97442 9.11026 29.6942
6.71095 6.50627 27.6557
7.44512 7.53098 26.986
7.20268 7.2254 23.9727
7.14018 7.66629 26.5219
6.7323 7.62357 28.7978
6.55813 8.91228 30.9132
6.03722 7.45417 25.4085
6.23164 6.69909 22.7194
7.55344 7.11754 27.4743
6.19572 7.21241 25.7921
6.62231 7.39404 30.5805
8.38348 7.63351 26.5284
6.51642 7.00387 21.9293
6.6944 6.38558 23.9497
7.54532 8.25343 31.1794
7.93089 7.80176 25.2728
7.35002 6.13884 23.5949
6.48542 7.58509 29.7638
7.67635 7.27617 27.6712
7.38861 8.8946 28.3745
6.6768 7.35536 31.7263
7.35419 8.66626 30.458
7.26868 7.80642 32.9069
7.78775 8.14674 27.6148
7.43472 7.96609 32.6318
6.70391 9.21783 26.3608
8.36976 9.16928 31.3731
7.32612 6.23345 24.2341
6.32786 9.12096 29.1629
5.69504 6.04554 25.264
7.31605 9.46188 33.7404
6.53182 7.30942 23.6185
6.02176 6.05765 25.6365
6.41349 7.33826 24.2047
6.39528 6.91154 28.9884
7.21362 8.75743 24.6628
7.38049 6.79764 28.4085
6.98168 6.43714 29.472
7.19627 8.17658 24.9939
6.44745 6.62558 27.5278
6.21738 5.8717 24.804
6.52344 6.93301 26.6911
6.82526 7.66816 25.2139
6.13884 7.61337 30.3343
7.55496 6.45498 24.4496
6.68778 7.97293 32.8572
6.34871 7.04111 24.3239
6.69568 7.07893 26.6773
6.4356 6.76026 29.5916
7.63478 8.40918 25.8144
6.62843 7.54771 29.0275
7.22234 7.1191 26.7896
7.16013 6.6516 30.1978
6.48284 7.82325 24.4074
6.82682 6.48257 25.4837
5.96458 9.00671 29.1406
6.90986 8.69983 30.4038
6.88551 7.34876 30.8362
6.2432 7.84979 28.1734
6.59582 7.09221 25.6873
6.18737 6.91262 24.9669
6.46029 5.08889 24.0686
7.54115 8.21397 29.9251
6.48685 7.8115 24.903
6.94917 5.67759 23.0696
7.61326 6.73574 23.9168
5.83271 6.5324 27.9102
6.89101 7.12629 23.9981
7.42355 6.6376 26.0114
6.61454 8.42066 32.2818
7.06367 6.62606 23.37
6.88862 8.25692 30.4458
6.34523 7.52312 31.5567
7.02117 6.54974 26.7891
7.31216 7.41595 24.4797
5.37002 8.23147 33.6397
6.8234 5.91866 22.5234
7.30467 8.00778 31.3912
7.3957 7.63174 25.8867
6.75753 9.05756 33.789
7.33597 7.49903 26.6786
5.67133 7.55906 25.4122
6.2839 5.59185 24.4484
7.52607 7.19902 28.1607
5.97075 7.31754 20.8166
6.16159 6.11716 23.5827
7.24237 5.95493 25.8808
6.80966 6.95441 27.6505
7.53666 5.92556 23.9502
6.62386 6.53002 26.4376
6.39322 7.96938 28.2824
6.29432 6.75273 23.3868
5.77831 5.24107 24.6571
6.67189 7.67817 26.5131
5.76231 5.94557 28.2896
6.94582 7.53672 24.6182
6.76221 7.04103 26.9409
5.93844 6.14781 25.8198
7.72988 7.19433 26.703
6.41483 7.33923 24.9617
5.63472 6.62105 24.4633
6.01729 6.74674 28.4732
6.69998 6.74456 31.1572
7.35445 6.90816 21.6585
6.71716 8.35517 29.6952
5.55923 9.07273 32.7792
7.25057 6.35372 28.2374
7.33135 7.31105 26.2308
7.17783 7.17517 27.5603
6.48648 6.62888 28.9158
6.67026 5.68745 21.7824
6.93409 6.23322 21.4924
5.32537 5.91674 26.6298
6.84383 6.9912 23.4921
6.53467 6.08721 23.4083
6.07917 5.65568 25.5976
6.29544 5.07838 24.2719
5.77884 8.65151 27.5953
6.29291 5.84824 24.5612
7.10742 8.92549 35.4999
7.587 6.82388 25.3708
8.10483 6.95011 26.3471
5.58432 8.29725 29.8443
7.51235 7.43283 25.716
5.36151 6.19061 25.7933
5.95563 7.31564 25.7011
5.57934 8.41056 31.4186
6.63038 7.47123 30.8267
6.76557 7.31804 30.922
7.2756 6.36899 21.7873
5.78326 6.95868 27.273
6.29852 7.64031 31.1492
7.89093 7.53473 26.7351
6.72924 6.42056 25.2585
6.72092 6.82873 24.3798
6.63257 6.37284 28.7454
6.50834 6.32518 25.3687
6.7408 6.15193 23.2269
5.78305 6.75445 23.701
6.15739 6.75643 27.5161
6.90651 7.05073 28.4477
6.80185 7.5762 29.8582
5.83064 7.93465 24.983
6.52801 5.69 23.2581
7.11775 5.92973 26.525
6.78799 7.81788 29.664
7.04873 7.41488 31.1328
7.15344 6.61691 24.7763
6.07835 6.89722 27.8686
7.24122 6.51744 20.8086
6.11231 6.40075 32.1217
6.56838 7.83449 30.5657
6.33689 6.56215 27.7548
6.72958 7.28783 24.1724
5.70496 6.77587 28.4434
7.15609 6.33006 27.5546
6.28226 6.13803 23.9156
6.42797 6.93676 24.5805
7.39871 7.21919 30.2144
7.61582 8.62453 27.6962
6.51794 6.81302 31.173
6.11808 7.56225 27.8756
6.71414 5.87262 25.1833
6.02282 6.64229 23.6522
6.85411 5.32459 23.0975
6.44628 7.18272 29.5166
6.23628 7.36104 28.1678
6.02409 6.25625 25.8542
7.22151 6.64115 23.3102
4.92017 7.02429 24.0644
5.83634 6.7053 28.9846
6.58958 8.07037 25.9352
6.2963 5.70472 30.0409
6.90805 7.50961 28.2385
6.72621 9.22611 30.9069
6.31909 6.17712 28.9419
6.48472 7.74821 31.2148
7.31704 6.30646 23.6735
6.59205 6.29273 23.9167
6.16872 7.04651 28.9312
6.47994 6.12176 23.1101
5.62294 6.94002 26.7378
5.57556 6.41616 28.3122
8.20124 7.26529 28.3205
6.5129 8.56998 33.1431
6.78529 7.78753 22.48
6.55022 6.56909 32.3673
6.11039 6.86414 24.2466
6.15346 7.22933 35.157
7.80706 7.5926 28.4672
6.6416 7.47806 23.5786
6.81079 6.65955 22.8279
5.03139 6.34487 26.6923
6.59745 6.93465 23.964
5.34768 6.75118 35.2982
5.70098 7.67666 23.456
6.56705 4.94773 20.132
5.09144 7.39833 27.0883
7.04471 5.31797 23.0781
5.95066 5.82386 26.6867
6.26992 7.85142 28.3632
6.62331 8.80346 34.2592
7.3756 9.09276 28.713
6.3063 6.31811 24.9462
6.59146 6.55703 32.3744
6.32237 7.51839 26.4569
6.76134 5.23419 27.0609
5.56775 7.32979 29.2396
6.4354 6.44422 29.677
7.36118 6.75102 27.849
6.35048 6.93316 20.1107
6.14616 5.56238 29.2977
5.95642 8.35279 32.195
6.87203 7.20124 23.9342
6.31083 6.25923 24.7488
5.77217 5.7126 25.6538
5.60567 6.88781 24.3284
6.68691 6.38193 24.9334
6.07165 4.51719 21.1918
5.89781 5.67803 24.7404
5.95542 6.11008 23.9632
6.41246 5.88901 25.524
6.05776 7.48318 23.9173
5.86963 7.9113 29.9805
7.48092 5.56498 26.7869
6.04333 6.87225 26.9953
5.90913 5.13774 17.4677
5.36309 6.02664 24.0881
6.14273 5.36213 23.6387
5.9759 6.30104 29.0989
7.40738 7.21594 22.2219
5.42387 7.16778 27.7736
6.02001 6.31507 26.696
5.9224 7.26132 28.9535
7.50494 6.60651 28.6369
5.80297 5.08862 23.9942
6.40222 7.04691 33.8417
7.04138 6.76693 21.3802
5.33732 7.03399 27.3137
7.16531 5.69163 22.6137
5.55491 6.8852 25.38
5.90465 6.8179 27.3849
5.84562 6.01474 22.7779
6.64545 6.27567 24.4912
5.34374 5.76121 21.0609
6.47152 4.43077 20.7129
6.51041 6.87833 20.0477
5.39825 6.86037 34.7954
6.82587 6.69017 25.8831
6.00865 7.52948 29.6784
5.90944 6.63101 26.316
6.36361 6.1838 27.3532
5.50879 7.55952 22.2511
5.78873 5.14401 21.0167
5.77414 5.33303 28.8848
6.91772 7.1092 22.9461
6.01273 6.16187 24.1988
6.03782 5.34288 20.9399
6.83777 6.14946 26.7796
6.15552 5.87956 20.4657
6.07258 4.66972 22.449
6.62769 6.42425 25.982
5.7478 6.97307 32.7972
6.81427 7.95518 29.6578
6.11796 7.17215 27.6988
6.36183 7.85248 24.8459
5.50459 7.39447 29.0123
6.26065 5.60991 21.9078
5.75627 6.34465 28.9785
6.64108 6.48424 24.5386
6.64762 6.10823 28.2945
6.68537 7.29407 29.8984
5.41101 6.89299 26.6075
7.27799 5.68511 21.9333
5.77294 7.72257 29.192
7.23361 5.90544 23.145
6.29401 6.10831 24.1129
6.31685 5.99631 24.3665
5.85316 6.3795 23.7194
6.09697 5.85269 29.4416
5.56269 6.76488 24.7827
6.26919 7.40863 28.0061
6.72893 5.00904 26.4842
6.87058 7.95943 23.2735
6.05354 6.78422 25.8801
5.22515 6.98464 26.5876
7.02806 6.16887 25.3069
5.60484 6.50552 30.8505
6.6088 7.20262 32.7107
7.04075 6.35459 24.8608
5.43287 8.97605 40.8163
8.57792 0 0