# pn-170911/CsIIA-40-USN3-1280-1959.psd
# Power spectrum* (dif=0,1,2) (really just |FT|^2)
# NOTE: only the first half! (symmetric)
# weeks: 1280-1959
# 2617 clock-days, 787 excluded
# PSD: 1441
43210.8 1.25622 0.0297669
1.39294e+06 25.4555 0.0161506
6.02083e+06 119.112 0.0184742
1.36408e+06 51.7638 0.0179102
1.05893e+06 73.1625 0.0219413
510472 50.6535 0.0219064
368749 52.7221 0.0256629
254584 50.2288 0.0272412
201503 51.8475 0.0320024
154088 49.2507 0.035111
127862 50.9328 0.0404046
104450 49.1156 0.044174
90358.4 52.1879 0.0509339
75211.2 51.0489 0.0571613
65739.2 50.5022 0.0639236
57968.5 51.0558 0.0687276
50777.3 52.01 0.0806777
44150.5 50.1896 0.0856552
39857.7 50.2811 0.0922894
34853.4 50.0023 0.100972
31242.1 50.0215 0.111764
27238 48.8927 0.118061
26872.7 51.1407 0.133984
23020.1 48.1931 0.136021
22313.2 49.9996 0.152664
19695.7 47.8963 0.156033
18297.4 48.5239 0.171272
17723.9 50.8275 0.193377
15960.5 49.2931 0.201082
15345.4 50.6569 0.216419
13967 49.5019 0.226666
13004.9 50.1248 0.244872
12239.8 49.2257 0.256703
11850 50.6882 0.280015
10822.4 49.4703 0.28373
10524.7 51.1855 0.313615
9807.67 49.6898 0.326418
9325.29 49.9252 0.339607
8855.29 49.7836 0.356426
8348.49 50.2974 0.380403
7904.35 50.5285 0.403319
7485.89 50.2103 0.417319
7190.46 49.7058 0.432367
6684.82 49.263 0.44421
6659.85 50.0587 0.477368
6257.05 50.1793 0.499682
5923.1 49.1271 0.508952
5682.61 48.6939 0.523063
5413.39 49.5069 0.559746
5241.75 49.7842 0.582004
5006.98 49.4236 0.600422
4738.72 48.7136 0.620669
4480.87 46.9679 0.623363
4294.71 48.0796 0.660761
4344.02 50.272 0.716454
4055.56 47.7666 0.701175
3916.67 48.08 0.730952
3879.75 49.3552 0.780355
3767.34 50.2016 0.827506
3543.7 48.9094 0.824205
3447.76 48.7404 0.856192
3405.12 50.1799 0.906683
3278.49 48.8503 0.909126
3050.58 47.5412 0.914669
3030.49 49.073 0.969101
3006.52 49.9582 1.01706
2814.95 48.1335 1.0087
2838.22 48.9574 1.05745
2705.71 49.4131 1.1076
2563.02 48.1328 1.10164
2534.81 49.4212 1.17025
2551.02 50.555 1.22794
2342.91 46.7652 1.17164
2344.27 48.9929 1.25088
2196.69 47.9627 1.26435
2175.57 47.7847 1.30389
2177.28 50.3981 1.40078
2113.68 49.2907 1.40712
2121.12 50.6386 1.48277
2014.74 49.1084 1.46383
1974.38 49.276 1.5122
1879.41 49.1173 1.54533
1906.33 50.22 1.61694
1823.08 49.2231 1.62015
1735.85 47.8404 1.61514
1694.27 48.6809 1.68537
1706.76 49.1198 1.73731
1646.69 48.1393 1.73516
1566.49 47.7978 1.77633
1547.47 47.4217 1.79026
1539.53 48.5598 1.87822
1542.58 51.3237 2.02884
1490.51 49.1061 1.99515
1466.4 48.7745 2.0141
1413.53 47.6805 2.01488
1350.31 48.4272 2.08775
1323.89 47.4993 2.10362
1326.43 49.2557 2.19884
1305.28 48.5252 2.23146
1258.45 47.2829 2.20841
1220.46 48.0768 2.2939
1171.75 47.4142 2.30043
1165.57 45.6002 2.25962
1163.75 47.7889 2.41554
1146.28 47.7874 2.46094
1137.28 49.0742 2.57681
1060.55 46.6159 2.48653
1079.23 48.9995 2.67175
1023.03 47.4972 2.64148
1050.71 47.6318 2.69961
961.314 46.0992 2.65941
975.866 47.2785 2.78763
971.84 47.0438 2.7998
946.698 46.4235 2.84599
969.171 48.3326 2.97031
921.126 47.1279 2.96845
890.207 46.4084 2.96827
857.41 46.286 3.01164
845.74 45.5461 3.03066
870.48 48.1159 3.23568
827.18 45.9029 3.13472
837.429 46.0666 3.22534
802.602 46.5495 3.29179
788.896 46.8362 3.35695
772.023 46.3138 3.39093
770.336 46.0497 3.41958
738.129 44.2298 3.33318
731.877 45.4298 3.48383
727.608 46.7531 3.6258
718.983 46.3625 3.66195
717.009 46.9659 3.76083
705.172 47.004 3.81213
674.205 44.856 3.71745
696.105 47.6839 3.9851
683.42 47.4539 4.03293
651.845 45.5097 3.95755
649.908 45.9114 4.05045
636.414 45.9563 4.07021
618.554 45.6863 4.133
608.197 45.2853 4.13815
588.832 44.6022 4.11621
607.286 47.1546 4.47189
604.516 46.6686 4.45659
585.491 46.5876 4.51397
551.246 44.9172 4.41546
548.772 45.0096 4.4653
555.858 45.0394 4.54899
542.781 45.1702 4.63768
545.829 46.8659 4.85171
540.142 46.1443 4.85536
513.075 44.6356 4.73477
512.953 44.7281 4.83325
517.297 45.2636 4.92636
491.773 44.604 4.93496
509.645 45.8734 5.13615
488.346 45.3252 5.1626
479.115 45.113 5.17444
476.716 44.2147 5.14826
471.466 44.5308 5.24992
451.578 44.1227 5.29057
460.864 44.9965 5.4396
458.208 45.8006 5.57035
443.747 45.2593 5.61821
446.488 45.3216 5.6805
450.479 45.81 5.81395
415.801 43.9481 5.65121
411.129 43.3278 5.67132
419.883 44.4109 5.83436
411.276 45.3001 6.03325
400.561 43.3855 5.86371
396.763 43.921 5.97962
397.561 45.5839 6.26503
403.772 45.7334 6.36939
380.507 43.5598 6.15084
380.011 43.744 6.22548
379.782 44.4117 6.43301
362.589 43.1212 6.27606
373.972 44.2542 6.5153
362.657 43.5033 6.48593
364.707 43.5731 6.56047
346.503 42.2339 6.45612
351.349 44.5036 6.85195
350.414 43.712 6.81249
348.485 44.2239 7.00088
344.174 44.5386 7.038
337.055 44.3051 7.13685
330.8 43.0002 7.00833
342.182 45.5666 7.50741
321.692 44.0361 7.27546
336.145 44.3678 7.43469
308.403 41.6195 7.05363
308.364 42.1359 7.28097
312.866 43.2054 7.47201
304.876 42.7472 7.53204
297.872 42.9943 7.5647
306.389 44.2708 7.8699
287.583 41.7019 7.51508
289.098 42.8 7.83619
288.655 42.1765 7.77475
286.135 42.5509 7.91214
277.069 40.759 7.66272
296.384 44.7259 8.41191
277.621 42.7441 8.1779
266.211 41.5345 8.06139
260.706 41.0411 8.03855
267.927 42.5744 8.36826
266.314 43.0798 8.55859
259.582 43.4939 8.75246
263.33 43.0821 8.78247
252.031 41.6113 8.47598
251.306 42.0211 8.70073
255.138 42.9612 8.98481
251.193 42.2151 8.82371
246.672 42.6052 9.06468
244.71 41.8268 8.99087
235.156 40.6226 8.80125
239.243 41.6154 9.0735
233.375 40.7867 8.94011
237.192 42.2203 9.41908
229.736 40.9087 9.15582
230.489 41.7119 9.38617
220.414 41.0727 9.38495
231.489 42.5717 9.81593
228.381 42.5977 9.89084
225.748 42.2896 9.8831
221.608 42.0653 9.95259
214.02 40.9636 9.83275
214.957 41.2997 9.91516
203.718 39.6472 9.69519
206.994 40.5246 9.88366
203.076 40.0595 9.94592
205.337 39.6139 9.86821
198.488 40.5639 10.1657
202.471 41.6891 10.5141
196.011 40.4173 10.3261
198.115 39.4879 10.1855
201.324 41.0283 10.6352
193.078 40.2826 10.5247
192.962 40.067 10.5954
196.012 40.9894 10.8727
189.764 40.8269 10.9455
180.814 39.5557 10.6856
184.04 40.2879 11.0349
185.28 40.7685 11.2243
186.621 42.3299 11.7762
181.559 40.2333 11.1859
177.368 39.7215 11.1707
179.843 41.2893 11.6768
179.43 40.3383 11.5734
173.434 39.537 11.3404
165.857 37.6417 10.9709
172.713 40.5687 11.9743
166.415 38.4517 11.2629
169.164 40.3721 12.0548
165.931 39.4637 11.8533
168.432 39.7222 11.8999
158.287 38.407 11.7054
157.55 38.9554 11.9408
159.248 38.4916 11.8808
152.275 38.7155 12.0875
158.82 39.394 12.3609
151.108 37.8818 12.0273
154.137 38.4718 12.2128
156.473 39.9643 12.9282
150.967 38.5658 12.4997
150.509 38.3299 12.4246
146.539 38.7838 12.6412
150.457 38.9819 12.8516
149.476 39.0351 12.9312
145.594 38.7452 12.9608
144.724 38.5158 13.037
144.483 38.424 13.0072
143.755 39.1093 13.3269
141.79 38.2737 13.19
141.013 38.7059 13.4047
136.105 37.6254 13.2474
137.664 37.4769 13.0788
136.802 37.798 13.3751
137.047 37.9286 13.6649
131.313 37.8192 13.8122
134.805 38.2029 13.6423
136.026 39.3014 14.3878
133.472 38.1911 13.9525
124.755 35.8948 13.312
127.049 37.6287 13.9402
125.691 37.4427 14.1097
130.165 38.2817 14.3315
122.305 36.4157 13.9096
127.088 37.8062 14.2389
122.748 37.8229 14.614
121.283 37.1061 14.363
122.296 37.6372 14.667
120.096 36.4638 14.3853
122.6 38.3527 15.2308
116.569 36.6168 14.6588
116.912 37.0171 14.7261
122.65 38.122 15.2539
115.043 37.1737 15.2211
114.419 36.8509 15.0312
115.33 37.4536 15.3246
114.373 37.036 15.4728
114.923 36.8483 15.2842
109.327 35.8305 14.9626
110.788 36.6598 15.4272
105.137 35.164 14.9715
109.096 36.571 15.4613
104.457 35.4254 15.3024
104.954 35.199 15.2823
107.824 36.8614 16.0782
106.149 36.0534 15.7927
107.522 36.5984 15.9283
102.736 35.0746 15.5461
100.306 35.3706 15.8703
103.661 35.6365 16.0062
101.507 35.1909 15.8822
101.88 35.9428 16.3864
99.1087 34.9702 15.8915
100.588 35.0771 16.0341
97.9607 35.1778 16.3734
99.5431 35.8993 16.6731
93.7372 33.8624 15.8448
97.0826 35.6149 16.9364
97.5009 36.308 17.1751
97.6612 35.8323 17.0229
99.341 36.7216 17.4701
93.9006 35.4693 17.2462
93.0315 34.2576 16.5397
93.06 34.6717 16.8778
88.6963 33.798 16.6747
87.5486 33.0857 16.3391
89.9907 34.3692 17.1159
90.0192 34.8549 17.207
88.1867 33.8758 16.9686
88.0082 33.5141 16.8364
87.6539 34.4504 17.5619
84.5412 34.3721 17.7053
87.6498 35.2231 18.1574
88.4884 34.7851 17.8216
82.6562 33.5774 17.5455
85.1385 34.3978 18.1367
84.7517 33.5411 17.5279
82.1999 32.7172 17.4525
80.9951 33.6476 17.8988
81.8639 33.5477 17.9117
83.2891 34.6377 18.6163
81.9792 34.2286 18.3152
79.3299 33.4205 18.4561
83.624 35.5497 19.374
79.3969 32.7893 18.1073
77.675 33.0862 18.4783
79.148 33.578 18.3172
77.5534 33.3098 18.7243
81.5361 34.746 19.2761
79.038 34.3746 19.2484
75.9263 32.9461 18.7738
76.6137 34.4556 19.6868
75.7054 32.9732 18.9394
75.6369 33.795 19.5584
76.6979 34.4828 19.8942
74.0244 32.6175 18.9223
76.8576 34.4171 20.2144
72.6463 33.1564 19.6081
74.8534 33.685 19.8137
72.4264 32.7766 19.5509
73.229 32.3726 19.289
72.2533 33.6706 20.4169
72.2949 33.9666 20.4723
68.2445 32.3929 19.6964
71.093 32.8096 20.1064
69.8794 32.3115 19.7756
69.5729 33.1649 20.3983
70.378 32.5787 20.169
67.4737 32.8892 20.5765
67.4051 32.5854 20.4374
67.3928 32.3691 20.5625
66.5247 31.8285 20.2239
66.9171 31.6884 20.1038
66.6161 32.058 20.3323
63.5532 31.554 20.2105
64.1425 31.0913 20.3567
64.8523 31.6671 20.3678
62.4713 30.8029 20.0989
62.4698 30.9444 20.3583
63.6221 31.3547 20.6387
63.3471 31.0216 20.3733
62.1271 30.7256 20.3325
61.6134 30.5985 20.3971
58.6353 29.4716 20.054
60.1601 29.9743 20.0399
58.5022 30.6053 20.9831
59.2435 31.2362 21.1947
61.6125 31.4564 21.6891
61.0213 31.4959 21.3159
59.3366 30.2613 21.1463
60.3358 31.555 21.7782
58.7663 30.8122 21.4572
57.7044 30.6407 21.7661
59.7804 31.5062 22.1684
57.1466 30.0754 21.1938
58.1412 31.6275 22.3395
56.1662 29.8941 21.3744
56.6293 30.328 21.7017
55.7103 30.7461 22.25
56.3613 30.1219 21.7426
53.9163 30.1901 22.3273
56.5431 30.1849 21.9982
52.8131 29.2068 21.3777
54.4917 30.8934 23.0331
54.8704 30.4341 22.6896
55.6672 29.9709 22.043
55.1766 31.1974 23.304
53.0344 30.0614 22.7422
51.1017 28.5231 21.5719
53.8218 30.2338 22.83
52.6003 29.9873 22.9281
52.5206 29.7662 22.6377
50.9399 28.5881 21.8971
50.8433 29.7574 23.1292
49.8654 28.179 21.9449
53.2032 30.1419 23.5131
51.9467 30.0431 23.4431
51.5015 30.0743 23.2831
49.5178 29.5433 23.7821
49.2565 28.5345 22.5352
48.6128 29.1431 22.6225
49.3751 29.7603 23.9697
50.1462 29.9822 24.0228
48.4724 29.0765 23.6783
49.4401 30.4515 24.7975
49.2609 29.8995 24.4267
46.4216 28.1168 23.0488
46.4707 28.1044 23.1167
47.8723 29.0847 23.8231
47.1337 29.1757 23.865
45.1483 28.1217 23.6881
46.9941 28.5718 23.7801
46.267 28.5757 23.8896
45.2997 28.145 23.7156
44.9751 27.8313 23.439
43.6274 27.7466 23.8868
45.1323 28.0145 23.732
46.1236 29.3549 25.0776
46.28 28.9817 25.0672
43.8779 27.6033 24.2435
45.6524 28.8849 24.6487
43.2488 27.6369 24.3973
45.7926 28.9595 24.7565
45.0438 29.3968 25.8334
42.7441 28.095 24.8607
42.2435 27.1811 23.9468
41.6744 28.2506 25.2286
41.0223 27.7497 24.7248
43.0692 28.4012 25.5604
42.0656 27.4736 24.4751
42.9614 28.2673 25.8317
42.2609 28.2855 25.4494
40.8685 26.857 24.8189
41.0058 27.2963 24.9562
40.2981 26.6963 24.5819
41.1576 28.127 25.4368
39.648 27.6952 25.9292
40.8223 27.7648 25.8555
40.4012 27.6938 26.0386
40.1271 27.5363 25.5715
39.524 26.7905 25.2063
39.6519 26.8956 25.2477
39.0156 26.685 25.2406
39.0235 27.2138 25.8938
39.2301 26.7898 25.5342
37.843 26.962 26.3375
38.7846 27.2636 26.0876
38.2817 26.8589 25.7801
38.2855 26.3669 25.2898
36.4933 25.122 24.3924
36.4965 26.1577 25.6759
37.6604 27.043 26.1887
37.0271 26.9131 26.5797
35.8338 25.6327 25.6108
36.5941 26.1386 26.1882
37.4838 27.0321 27.1893
38.1195 26.5713 26.3082
36.8444 26.5119 26.7287
37.159 26.6817 27.0235
36.2997 26.107 26.4961
35.2524 25.8867 25.8374
35.5256 26.0719 26.4196
35.124 25.7371 26.2583
34.3935 25.3077 26.4007
35.5418 26.0104 26.7714
35.9187 26.1136 26.8706
34.5451 25.9254 26.9608
35.2526 25.5739 26.759
33.4152 24.7747 26.0949
33.4253 25.4361 26.4193
33.6198 25.0511 26.3909
33.9489 26.101 27.3962
33.6516 25.4458 27.1342
34.0818 25.2516 26.7671
32.6399 24.5037 26.1086
31.9837 23.9629 25.8043
33.5048 25.9556 27.6669
32.3786 24.8222 27.0636
33.415 26.1717 28.2897
32.0277 24.3512 26.5514
32.8546 25.3137 27.4622
33.1212 25.344 27.6283
31.4489 25.1225 27.9959
32.2303 25.1462 27.9419
31.2101 24.4356 26.84
31.3777 23.7249 26.3127
30.6535 24.2127 26.9487
30.3191 23.8561 26.8579
30.2038 23.515 26.5793
31.0594 24.691 27.7232
31.0296 24.8803 27.9804
29.5577 23.1511 26.4294
30.1792 24.5296 28.2313
30.5456 24.6667 28.0005
30.2972 24.3409 28.3264
30.7222 24.6149 27.975
30.4023 24.2664 27.7699
29.5617 24.4144 28.4076
29.9669 24.0332 28.0623
29.4448 24.3524 27.9771
28.5107 24.035 28.3378
29.3075 24.1254 28.3956
28.7633 24.1856 28.5838
29.0332 24.6111 28.4887
28.915 23.5817 28.0437
28.6961 24.1468 28.6993
28.3403 23.6435 28.65
28.5182 23.4293 28.1915
28.3331 23.8359 28.2878
27.4373 23.0882 28.3589
29.0583 23.9868 28.6804
28.0319 24.1947 29.3631
28.2198 23.0788 28.4618
28.1404 24.1878 29.8143
28.1713 23.8387 29.4009
27.7151 23.1697 28.3868
27.512 23.9311 28.8065
26.8784 23.9999 29.6507
25.9505 21.7107 27.1194
26.1182 22.6158 28.3505
27.2794 23.7668 29.5049
26.4827 23.1957 29.1607
26.3989 22.5313 28.2062
25.8112 22.85 28.9506
26.4744 23.64 29.7042
25.2446 22.3436 28.9546
26.6025 23.4121 29.8787
26.8007 24.0128 30.2126
25.1147 22.1108 29.0292
25.6771 22.7038 29.1501
25.7484 22.4943 28.9778
24.1816 22.3748 29.1349
25.8553 22.7534 29.2253
25.6993 23.0215 30.0702
24.9617 22.3196 29.1708
25.0822 22.7108 29.741
25.2277 23.0519 30.0369
24.4698 22.3671 29.7956
24.531 22.0506 28.9637
24.2963 21.8932 29.3001
25.1364 22.6986 30.1126
23.988 22.378 29.8902
24.1217 22.1806 30.3484
23.8724 22.275 30.66
24.5639 22.217 28.8974
23.5913 21.8891 29.8298
23.6147 22.2443 30.0369
23.7223 21.6974 29.8405
23.544 21.5449 28.999
23.037 22.399 31.019
23.4964 21.7954 29.7937
22.9605 22.0004 30.7736
22.9761 21.5093 30.0114
23.0419 21.4474 29.3358
22.5704 22.0407 30.8387
23.634 22.7769 31.1069
22.7351 21.3033 30.2517
22.241 21.2453 30.1493
23.011 21.8199 30.043
21.8367 21.6375 30.4429
22.0718 20.8258 29.6549
22.3411 21.5312 30.1729
21.7694 20.6488 29.4971
21.9606 21.4715 31.0546
22.3603 21.1019 30.2615
21.921 21.5087 30.6733
21.4047 21.3555 30.6429
21.295 20.4458 30.0099
21.9293 21.0265 29.851
21.7589 21.5773 31.5852
21.5132 21.3903 31.4025
21.6506 21.097 30.8853
21.4185 20.9588 30.6229
21.0333 21.4161 31.7578
21.3166 20.5047 30.0985
20.667 20.6206 30.4881
20.8896 20.5006 30.0704
21.0438 20.615 30.4214
20.6946 20.8694 31.3963
20.3812 20.0757 30.2475
20.7116 20.6062 30.5778
19.7636 20.0687 30.5603
20.3278 20.6946 31.3778
20.3112 19.8258 30.1255
19.7242 19.9142 29.8711
19.4128 19.4931 29.639
19.7024 19.8313 30.3287
20.081 20.4422 31.2447
19.9995 20.6495 31.6716
19.9658 19.8883 30.2226
20.3072 21.0194 32.1905
19.0332 20.0146 31.5498
20.1776 20.0535 30.8952
18.6264 19.0608 29.6094
19.1803 19.7389 30.6018
19.8033 20.6708 31.9718
20.0688 20.1775 31.633
18.854 20.0149 31.8598
18.7182 19.2892 30.9705
19.641 20.3183 31.8285
18.498 19.5013 30.2358
18.8861 19.5231 31.5717
19.3108 20.7431 32.6685
18.4976 19.1339 30.2662
18.6461 19.9704 32.1621
19.1591 20.6656 32.6872
18.469 19.404 31.3432
18.4476 19.6616 31.8772
18.9338 20.6528 32.9453
18.2824 19.4647 31.7695
18.5617 19.3297 31.1773
17.8582 19.0256 31.433
17.7944 19.0634 30.8822
17.7518 18.9876 31.5898
18.3773 20.0423 32.6375
17.9269 19.2077 31.7538
18.5182 19.2499 31.5997
18.0803 19.5167 32.4624
16.9922 18.6428 31.1053
17.8506 19.8918 33.1973
17.6211 19.3917 32.907
17.9073 19.3847 32.5116
17.6898 19.4084 32.4842
17.8486 19.1232 31.7274
17.1727 19.4152 32.6261
16.5719 18.4318 31.668
17.3287 19.2232 32.4323
17.2427 19.586 33.2225
17.1443 18.8959 31.7252
16.6114 18.3586 31.8652
17.3964 19.2089 33.0883
16.7373 19.0127 32.4465
17.1826 19.3355 32.6405
16.4742 18.5134 32.5491
16.2433 18.5476 32.3123
17.2255 18.7206 32.0668
16.6389 18.7318 32.3886
16.5644 18.7109 32.4882
16.1851 18.1933 31.6044
16.1119 18.7097 32.8282
16.0605 17.8283 31.2252
16.3877 18.5547 32.8098
16.2324 18.3044 32.1995
16.3921 18.4607 32.8933
16.25 18.5009 32.6424
16.0774 17.8846 32.0796
15.7961 18.3061 32.9091
16.1306 18.8476 33.3235
15.9193 18.1512 32.6439
15.9217 18.1319 31.5624
14.9477 17.6965 32.1102
15.4067 17.5674 32.176
15.5215 17.9235 32.7257
15.7374 18.5301 33.3993
15.1268 18.1673 33.0684
15.6819 17.6354 32.0837
14.7895 17.7 32.2841
15.4625 17.4576 32.4194
15.1333 18.4288 33.599
15.1897 17.8464 32.7926
14.9195 17.4769 32.149
14.9052 17.8926 33.3055
15.1749 17.6197 32.5275
14.8738 17.6601 32.425
15.0732 17.5696 32.7574
14.4907 17.7035 32.1178
14.7487 17.3132 32.3185
14.4972 17.6282 33.6385
14.9065 17.0908 31.7036
14.9373 18.3385 34.3647
14.5301 17.4163 33.057
14.3116 17.0435 32.2297
14.2557 16.9695 32.4674
14.4461 16.5308 31.3177
14.2952 17.3285 33.162
14.4292 17.4492 32.6749
14.1356 16.8184 32.2651
13.9374 17.192 33.1721
14.128 17.0851 32.6921
13.7541 16.5075 32.4282
14.0368 16.8996 32.6358
14.2423 16.6087 31.8569
14.2425 17.903 34.6137
14.6037 17.25 33.1373
13.7625 16.4728 32.602
13.9018 17.0238 33.5946
13.9754 16.546 31.6642
13.3318 16.5271 33.1604
14.1056 17.3161 33.5226
13.4256 16.499 32.91
13.5973 17.2591 34.3655
14.1315 17.1019 33.3199
13.6794 16.6074 33.5016
13.6019 16.6347 32.4691
13.827 16.8781 33.2409
13.3212 16.4637 32.6883
13.4269 16.3004 33.4269
13.4481 16.3647 33.1238
13.4538 16.3255 32.2836
13.317 16.411 33.2024
13.1208 16.0408 32.7533
13.2428 16.6303 32.8896
12.9531 15.9451 31.8588
12.6575 15.8877 32.4299
13.0064 16.2146 32.9907
13.2361 16.1141 33.5817
13.3099 16.5616 33.7621
13.1341 16.0984 32.6917
13.3482 17.1221 34.5188
12.8869 16.2546 32.9536
12.8226 17.0131 34.6104
12.2384 15.5536 33.3596
13.1044 16.2144 33.3965
13.0548 16.1424 32.8612
12.5387 15.826 33.515
12.7763 16.0957 33.0863
12.6325 16.6024 34.5043
12.496 16.1452 34.4971
12.6219 15.8279 32.805
12.5056 15.5721 32.8951
12.3018 16.3006 34.4537
12.5101 15.2796 32.6086
12.6429 16.4101 33
11.8618 15.6069 33.1577
11.8211 15.1742 32.646
12.1512 15.3146 32.371
11.843 15.5898 33.6903
12.1909 15.6685 34.1193
12.5013 16.0786 33.7337
12.2213 15.9463 34.2915
12.1219 15.9569 34.0525
12.3232 15.7908 32.9241
11.6975 15.4025 34.1436
12.014 16.1447 34.6776
11.9598 15.3974 33.078
11.4764 15.207 33.5854
12.2938 15.7661 33.7211
11.7857 15.0183 32.7622
11.6484 15.3461 33.7724
11.7709 15.2874 32.9605
11.704 15.5729 34.5759
11.3871 15.3791 33.33
11.1796 14.5012 32.7675
11.5119 15.7072 34.8492
11.4851 15.5486 34.5826
11.7995 15.3646 34.4063
11.548 14.8834 33.0764
11.3931 15.076 34.5112
11.9159 15.3969 33.0882
11.1317 14.7017 33.0803
11.0227 14.5224 32.1009
11.0821 14.6168 32.3199
11.1753 14.7057 33.4676
11.3364 15.6341 35.0693
11.1058 15.217 34.0911
10.9797 15.5359 35.1246
11.2536 15.1178 34.0642
11.1673 14.6436 33.0165
11.0636 15.1466 34.0961
10.8791 14.4326 32.5919
10.8002 14.6066 34.0833
10.7775 14.0929 31.9194
10.8674 14.788 33.7528
11.0492 14.2572 32.9181
10.5596 14.102 32.7994
11.0332 15.1195 34.6785
10.7349 14.6807 34.1832
11.2673 15.1623 35.1108
11.0855 14.543 32.5212
10.2727 13.9707 32.2396
10.5026 14.4008 34.0653
10.9431 15.3673 35.0261
10.6485 14.6014 34.113
10.6092 14.6174 34.438
10.9323 14.3345 32.864
10.2055 14.1127 33.1995
10.3919 14.1692 33.2449
10.5592 13.8435 32.7952
10.5758 14.3274 33.3489
10.4478 14.5178 34.3465
10.448 14.3886 33.3763
10.2281 13.9765 33.798
10.3863 14.6027 34.6472
10.316 14.0996 33.6716
10.2982 14.5878 34.7721
10.3468 14.3691 33.8255
10.2934 14.1508 32.8867
9.83395 13.8632 34.1189
10.301 13.9056 33.439
10.241 14.5128 34.8634
10.1141 14.1159 33.8364
10.1634 13.5583 33.0925
9.9274 13.9716 33.609
9.78582 13.8211 34.2968
9.99428 13.9353 34.5832
10.1019 14.1119 33.6797
10.1394 14.3176 34.0682
9.90396 13.7528 33.9269
10.2563 14.1527 33.9783
9.69372 13.4928 32.9662
9.50795 13.3094 32.501
9.95259 13.5481 33.849
10.1176 14.0246 34.5084
10.049 14.5985 35.229
9.82665 13.7111 34.7827
9.78647 13.6732 33.2405
9.42952 13.2828 32.6922
9.47134 13.5112 33.6195
9.56227 13.4586 33.1966
9.47584 12.9755 32.463
9.40697 13.4943 32.872
9.33977 13.4348 33.7231
9.42749 13.3569 33.7729
9.60965 14.0031 34.4699
9.35773 13.3257 33.259
9.45123 13.7759 34.894
9.37359 13.6996 34.9748
9.32629 13.1776 32.9597
9.14969 13.5242 34.2802
9.37172 13.6701 34.5408
9.41823 13.2369 33.4879
9.50941 13.5855 34.2808
9.34428 13.0077 33.104
9.44461 13.4619 33.7767
9.21661 13.3474 34.8129
9.37137 13.3604 33.9851
9.18155 13.1622 33.6647
9.00425 12.8832 33.4333
9.21545 13.6998 35.4317
9.4405 13.3219 34.1481
9.10593 13.5313 34.2277
9.01439 13.3265 34.5361
8.90758 13.1552 34.3451
9.24846 13.3187 34.2385
9.19805 13.0421 33.3341
8.99219 13.1306 33.9441
8.68436 12.9742 33.5363
8.68348 13.537 36.3437
9.21968 13.0091 33.2019
8.8274 13.3077 35.1106
8.99493 13.1928 35.0489
9.12952 13.5827 35.2752
8.96444 12.8501 33.0788
8.91829 12.6767 33.5154
8.75646 12.6779 33.8014
8.84561 13.0636 33.671
8.88027 12.8799 33.9928
8.64492 12.6033 33.3324
8.76791 12.824 33.3793
8.60229 12.7687 33.9878
8.65946 12.782 33.2722
8.51111 12.4839 33.1786
8.72962 12.3377 33.5864
8.51019 12.6073 33.355
8.61289 12.7248 33.8422
8.37554 12.3809 33.3204
8.2551 12.1953 33.3053
8.56965 12.5392 33.1359
8.34485 12.124 33.143
8.74876 12.4448 32.8464
8.31763 12.4921 33.5316
8.21558 12.1528 32.1764
8.49561 12.3296 32.9125
8.47569 12.1533 33.3376
8.35872 12.0494 32.7525
8.17119 12.1057 33.1296
8.28598 12.0332 33.1992
8.17021 12.4659 33.755
8.31927 11.9793 34.019
8.53878 12.8995 34.9057
8.44304 12.669 33.1325
8.11202 11.9236 33.1794
8.06065 12.1954 33.9975
8.02221 11.4436 31.6663
7.75584 11.6506 32.2544
8.15293 12.1813 33.0235
7.88806 12.2636 33.8027
8.18129 12.0941 33.9928
8.12364 12.1684 33.7958
7.88868 12.5285 34.1622
8.066 12.2592 33.7919
7.99155 11.4753 33.0504
8.08492 11.9176 31.8955
7.77177 11.6979 32.6473
7.68428 11.7447 33.0737
7.95654 11.9555 33.5299
7.92896 11.467 32.6261
7.89319 12.0266 33.6294
7.81981 11.8008 33.4546
7.7959 11.8 33.0644
7.81215 11.7084 32.6597
7.5272 11.6201 32.623
7.58037 11.6835 33.1961
7.89571 11.8786 33.9645
7.73998 11.5675 32.8606
7.59305 11.8297 32.355
7.44477 11.2082 33.1943
7.7767 11.731 32.5475
7.62385 11.4149 32.8387
7.71804 11.6813 32.5743
7.73243 11.5721 33.1283
7.5227 11.9792 33.9892
7.59996 11.7432 33.6844
7.50932 10.8863 31.5001
7.55366 11.5202 32.9668
7.52957 11.3904 32.8116
7.33797 11.3469 32.8377
7.55218 11.4782 32.8785
7.17495 11.1292 33.2036
7.47384 10.9622 31.5688
7.42537 11.1814 33.1184
7.49111 11.4876 33.2775
7.5281 11.3264 31.504
7.1951 11.37 33.3198
7.34167 11.2143 33.6825
7.49938 11.4273 33.6043
7.42911 10.99 30.6906
7.17509 11.3303 33.8935
7.41714 11.1325 32.2286
7.03467 11.3068 33.0929
7.00529 10.6848 32.3541
7.32453 11.4745 33.7851
7.15433 11.4399 33.0741
7.28372 10.9613 32.4656
7.2177 11.0532 33.0144
7.21271 10.9663 32.9288
7.32418 11.2384 32.8859
7.26415 10.5831 31.8189
7.30022 11.2368 33.1697
7.19763 11.3178 33.6828
7.4041 11.3646 32.932
7.18124 10.9936 32.2304
6.90265 10.7137 32.4758
6.99347 10.9561 32.5741
6.9245 10.8083 33.3742
7.1177 10.7744 32.2674
7.12781 10.7063 32.057
7.08639 10.9923 33.4862
7.07273 10.8032 32.2636
6.95373 10.4108 31.6362
7.08916 10.9888 32.9185
6.82874 10.3175 31.4567
6.75256 10.8525 33.1252
6.89514 10.5711 31.9568
7.0513 10.6729 32.0938
6.9634 10.8285 32.3373
6.73524 10.4106 31.3095
6.69357 10.6422 32.9937
7.00524 10.7232 32.1745
6.73324 10.5292 32.5046
6.78404 10.4805 32.1212
6.8833 10.5647 31.5493
6.74157 10.6957 32.6007
6.70083 10.5303 32.8566
6.7649 10.5437 32.1953
6.84697 10.9447 33.6154
6.96655 10.7547 31.8254
6.72839 10.5784 33.335
6.80096 10.679 32.7151
6.89264 10.4242 32.4136
6.6483 10.6153 32.1818
6.6595 10.5258 32.3961
6.74669 10.2997 32.1484
6.528 10.2031 31.6861
6.87638 10.1394 30.3723
6.42984 10.2929 32.5785
6.75106 10.5284 33.5302
6.71542 10.4345 32.4008
6.8119 10.5148 32.2956
6.59989 10.6647 33.6918
6.36938 10.2372 31.5931
6.53431 10.2121 31.8284
6.47464 10.1951 31.7619
6.57909 10.2041 32.7059
6.61267 10.685 32.8274
6.66617 10.2208 31.9227
6.5075 10.201 33.116
6.81955 10.657 32.2643
6.29039 10.1476 33.4816
6.51684 10.1278 31.3107
6.38466 9.93675 31.8561
6.49399 10.3291 32.3574
6.70967 9.904 31.1372
6.4967 10.1518 32.0047
6.33667 10.1788 32.6886
6.47904 10.3386 32.4604
6.39398 10.0774 31.8383
6.3042 9.88213 32.9747
6.54712 10.3298 32.7268
6.29856 10.091 32.6226
6.54033 10.3384 32.4813
6.41064 10.1866 32.3206
6.48561 10.2811 32.0682
6.25775 9.66429 31.1567
6.36038 10.0406 31.69
6.18273 9.82014 31.6495
6.28641 9.88745 31.9898
6.2774 9.88001 32.2302
6.21914 9.90632 31.8883
6.14565 9.77294 31.366
6.14958 10.2804 33.4103
6.27867 9.92587 31.2609
6.06934 9.75165 32.3143
6.26387 9.82374 31.3879
6.15588 9.3405 30.6152
6.10275 9.89837 31.5274
5.99252 9.4837 31.9946
6.20669 9.57089 31.3956
6.2085 10.0776 32.7582
6.31507 9.64856 30.3346
5.94952 9.47047 30.5982
5.78608 9.45683 31.6213
6.06463 9.45292 30.7289
5.91041 9.66773 31.8999
6.12366 9.52484 30.9319
6.02912 9.46448 31.5676
6.10994 10.01 32.5017
6.04368 9.57866 31.1463
6.04515 9.92128 31.7651
5.99645 9.44691 32.1372
6.07298 9.68805 31.4186
5.88336 9.3514 31.2457
5.92883 9.31795 31.5587
6.0414 9.73642 31.0722
5.94865 9.30505 31.575
6.00834 9.50078 30.7653
5.94753 9.55097 32.7604
6.00996 9.60741 31.0395
5.94778 9.66617 31.303
5.94137 8.9498 30.2016
5.82807 9.54196 31.11
5.8538 9.39972 31.3793
5.90019 9.44962 32.119
5.87845 9.48596 31.2508
5.84242 9.1967 31.1346
5.93668 9.35908 31.2017
5.97379 9.05508 30.2071
5.70733 9.10839 31.6041
5.89105 9.05144 30.0108
5.74222 9.40924 31.3938
5.71568 9.42677 30.9198
5.75857 9.13841 31.3628
5.80412 9.73738 33.3382
5.90135 9.45256 31.2319
5.63476 9.03172 30.5656
5.68728 9.20043 31.6345
5.78726 9.10098 31.8551
5.89146 9.28383 30.9464
5.90264 9.39129 30.9846
5.7388 8.88035 29.9262
5.68765 9.48202 32.4279
5.85902 9.00572 30.6693
5.71944 9.13953 31.3306
5.62768 9.00745 30.5248
5.83682 9.18435 31.0715
5.67931 9.21912 31.2042
5.56604 9.27218 31.1242
5.66075 9.00288 31.3821
5.69955 8.94375 30.0642
5.57521 9.34923 31.3578
5.56314 8.75202 30.9078
5.58355 8.66363 30.9535
5.71639 9.00342 30.0011
5.59492 9.19455 30.5742
5.51862 8.91026 30.9238
5.49765 9.14046 30.5639
5.57973 8.77461 30.7195
5.56443 9.53905 32.4794
5.51327 8.66056 29.6197
5.40015 8.6723 30.5721
5.51791 8.89648 31.4336
5.69773 8.81316 29.6266
5.33672 8.5055 30.9436
5.64248 9.09599 31.2639
5.58433 8.98724 30.2029
5.60335 8.93231 30.7739
5.37232 8.93478 30.6564
5.52608 8.83619 30.1448
5.50188 8.67147 30.5127
5.51172 9.0284 31.614
5.53997 8.65211 31.0788
5.50555 8.65399 28.3522
5.38199 8.41176 29.4441
5.28119 8.56082 30.8942
5.52337 8.77676 30.2682
5.46081 8.82008 30.2479
5.35668 8.58226 31.0666
5.40745 9.00728 31.1541
5.66784 8.94154 31.4788
5.43456 8.55086 30.1721
5.37529 8.79409 30.822
5.41216 8.75213 30.0716
5.29959 8.81527 31.9193
5.3494 8.96955 30.8104
5.32896 8.51138 30.1918
5.21515 8.60152 30.6105
5.2926 8.81412 30.7724
5.38201 8.69388 30.104
5.35108 8.54666 31.2798
5.35643 8.90035 30.6215
5.14288 8.28084 30.2071
5.30774 8.67244 30.5467
5.22081 8.92618 31.5599
5.34553 8.66426 30.7374
5.39877 8.76977 30.3641
5.19909 8.42574 30.5453
5.37245 8.86804 31.6723
5.54849 8.67585 29.9561
5.25251 8.49384 30.1378
5.25643 8.65836 30.6214
5.23409 8.88633 31.6322
5.20697 8.3674 30.6835
5.25617 8.54631 30.0312
5.39313 8.63678 29.9273
5.19593 8.17533 30.8409
5.28738 8.29228 29.6234
5.14742 8.51163 30.8874
5.3159 8.33509 28.9785
5.17211 8.63914 29.7676
5.08679 8.11035 30.1008
5.20371 8.66543 31.5274
5.29714 8.86974 32.2349
5.26031 8.25699 31.665
5.39504 9.10911 31.5302
5.21916 8.77336 31.9589
5.32729 8.7559 31.9836
5.30303 8.89687 32.5348
5.33889 9.1275 31.9257
5.22122 8.858 33.8165
5.42691 9.15903 33.4072
5.44804 9.32642 32.222
5.18515 9.0448 32.2724
5.21702 8.31938 30.9962
5.22813 8.35581 30.6867
5.22095 8.85624 31.1371
5.21371 8.6706 31.5753
5.24663 8.76826 31.6379
5.20657 8.35901 30.5625
4.97101 8.15227 30.3556
5.17109 8.49513 30.0609
5.05876 8.14153 30.1368
5.05495 8.4142 30.8893
5.08864 8.41634 30.5902
4.98226 8.35914 29.3604
4.94814 8.51588 31.1727
5.02266 8.36163 30.4521
5.08287 8.31758 31.0391
5.10438 8.11914 29.0374
4.88563 8.37262 29.6263
4.97841 8.13703 30.64
5.24808 8.28251 30.1673
4.9734 8.01094 29.6627
4.98505 7.69505 29.2791
4.9856 8.09217 29.6112
4.99728 8.06469 29.8846
4.91674 8.31648 29.9124
4.9383 8.22995 29.7721
4.8731 8.0372 29.6723
4.92287 7.92295 30.4261
5.03018 8.2146 29.4025
4.90285 8.04394 29.9093
4.86406 8.23662 31.157
5.01952 8.15833 30.374
5.03076 8.27322 30.3776
5.06064 8.14339 30.1541
4.94249 8.09639 30.1913
5.0475 7.98737 29.236
4.96273 7.9563 28.8218
4.93441 8.11933 30.358
4.7958 8.01302 29.282
4.76243 7.93668 29.8474
4.96356 8.21537 30.9959
4.98783 7.90953 28.659
4.75872 7.37801 27.8323
4.84259 8.06702 30.0199
4.95503 7.91378 28.9409
4.78099 8.01239 30.3165
4.79066 7.86649 29.2294
4.90111 8.18172 30.5218
4.94123 7.97382 29.4922
4.95522 7.75269 28.964
4.80296 7.60976 28.778
4.89054 7.93854 28.9654
4.81462 7.99813 30.8229
4.9729 7.96861 29.4338
4.87034 7.6101 28.7426
4.83553 7.68685 29.4138
4.78157 7.90545 29.3306
4.70079 7.95479 29.9502
4.84175 7.8773 29.2292
4.88317 8.16276 30.3209
4.86885 7.90131 29.0169
4.75555 7.40812 28.604
4.74444 7.52989 27.958
4.65422 7.71547 28.4806
4.81495 7.6736 29.2756
4.85824 7.81928 28.9933
4.65669 7.76066 29.4758
4.74069 7.95534 29.6934
4.85041 7.83604 29.8202
4.7298 7.47103 28.9588
4.76763 7.79227 28.9088
4.7534 7.68721 30.0094
4.69428 7.52577 29.8116
4.91403 8.06258 29.8836
4.85294 7.81833 29.0809
4.72695 7.55805 29.5977
4.77732 7.86801 28.9453
4.71812 7.75971 29.2371
4.73925 7.5602 29.0053
4.61709 7.42894 28.3777
4.67947 7.78889 29.398
4.84788 7.76234 29.4684
4.74825 7.74835 28.6407
4.66687 7.50582 28.0142
4.54627 7.62935 30.1369
4.80399 7.69421 29.4042
4.73116 7.7274 29.9271
4.82386 8.01191 29.4847
4.56943 7.41662 29.1853
4.71536 7.80087 29.0264
4.6863 7.51313 29.0055
4.60523 7.66396 29.8974
4.77814 7.70697 28.6261
4.58931 7.59745 28.7755
4.66252 7.54328 29.553
4.77153 7.58708 28.7355
4.62302 7.55877 28.3159
4.58491 7.48273 29.4598
4.62243 7.7143 28.8132
4.68427 7.5216 28.7216
4.59406 7.87061 30.208
4.81696 7.73176 29.5187
4.70074 7.59939 29.1698
4.74205 7.79062 29.5541
4.70174 7.34452 28.2148
4.62601 7.27435 27.7824
4.64873 7.42117 28.7227
4.75444 7.61741 29.857
4.72183 7.73417 28.8708
4.62001 7.50711 29.7493
4.76161 7.79706 30.4461
4.84495 7.43395 28.106
4.60987 7.60815 29.6026
4.58331 7.27935 29.3945
4.57635 7.76956 29.5153
4.66143 7.8604 29.2022
4.6235 7.5244 27.9765
4.48229 7.28337 29.7548
4.55398 7.52942 28.5407
4.5153 7.3838 28.1327
4.5696 7.49583 28.3281
4.56162 7.48065 29.4446
4.52702 7.42993 28.4312
4.57522 7.2944 28.6206
4.56947 7.47397 29.3703
4.67428 7.597 29.515
4.67033 7.41254 28.1949
4.5841 7.81248 30.4121
4.76609 7.38914 27.8787
4.54774 7.39132 29.5805
4.71005 7.41921 28.677
4.50311 7.23986 28.6395
4.45969 7.2633 27.2224
4.40833 7.2283 28.8673
4.5059 7.55392 29.0133
4.55955 7.10205 27.6342
4.45536 7.03294 27.4842
4.50016 7.46323 28.1081
4.41058 7.18704 29.0278
4.55811 7.42246 28.3531
4.5131 7.23237 29.4062
4.6653 7.31834 27.7669
4.5364 7.38426 28.1749
4.43481 7.15572 27.9096
4.48765 7.15001 28.7307
4.54137 7.29437 27.4663
4.40961 7.40927 29.4244
4.60549 7.02595 27.6297
4.59428 7.54271 29.5418
4.46029 7.37921 28.5352
4.49748 7.27787 28.5648
4.47872 7.4595 29.5204
4.42048 7.33641 28.5395
4.45148 7.42865 28.8213
4.56296 7.39403 29.3441
4.63401 7.25743 28.2556
4.48876 7.47808 29.5946
4.6324 7.47544 28.3762
4.46295 7.37278 29.3572
4.5773 7.30712 28.5238
4.46193 7.3486 28.8113
4.4746 7.37403 28.4327
4.33262 7.08607 28.3423
4.43054 7.22121 27.8132
4.29652 7.01551 27.4889
4.29193 7.06294 28.5553
4.41398 7.27649 27.0404
4.44693 7.26932 28.6695
4.36693 6.95038 27.8447
4.3028 7.13961 27.0233
4.22081 7.0073 27.4911
4.49805 6.9868 28.3886
4.45663 7.47654 29.0445
4.51646 7.10406 29.0876
4.46557 7.27325 28.056
4.36224 7.09812 29.0214
4.34476 7.04374 27.7551
4.4707 7.09794 28.6313
4.45331 7.26213 27.7699
4.36323 7.14376 28.0634
4.435 7.35506 28.7123
4.43603 7.1489 29.2949
4.48589 7.22057 28.4138
4.42234 7.19297 28.6774
4.45727 7.29741 27.869
4.38465 6.70939 26.5925
4.3266 7.31955 28.1862
4.41847 7.15072 28.143
4.31918 7.12538 29.3547
4.59393 7.28348 28.7937
4.53861 7.34253 28.5786
4.31896 7.41829 29.2215
4.47171 7.02899 27.386
4.3223 7.04018 28.5126
4.35184 7.08106 28.3999
4.50067 7.07298 27.2161
4.2759 6.86667 27.2337
4.41529 6.94946 27.9239
4.39193 7.11349 28.6422
4.51526 6.9945 27.6246
4.23615 7.03681 28.3382
4.30537 7.13885 28.1713
4.45174 7.17185 27.693
4.42551 7.06926 28.1573
4.39373 7.08988 28.6251
4.34028 7.07587 28.4214
4.44492 7.27323 27.8618
4.37293 7.19368 28.351
4.38653 7.14755 27.9008
4.30247 6.95617 28.1737
4.39827 7.25434 28.2934
4.33292 6.97285 27.7021
4.40972 6.88359 27.811
4.40143 7.05921 28.2249
4.35743 7.01274 27.7003
4.34249 7.0314 28.256
4.35523 7.01998 27.2284
4.20319 6.94307 28.3227
4.40721 7.07065 28.2799
4.42035 7.1551 27.6199
4.32571 6.82063 27.2062
4.40742 7.05651 28.1818
4.36699 7.05285 28.5142
4.36399 7.08053 27.5152
4.384 7.12165 28.2892
4.25064 6.99917 26.7261
4.25738 7.00036 28.0812
4.43778 7.27016 28.6919
4.408 6.92679 28.8432
4.36521 6.99039 27.7489
4.35041 6.9524 27.6353
4.43296 6.93184 27.6615
4.3438 7.1366 28.3205
4.39082 7.15763 28.9661
4.49026 7.00727 26.9634
4.17611 6.88476 27.8474
4.30733 6.87501 28.1554
4.34557 7.03991 28.6718
4.3961 7.4674 28.7622
4.41742 6.61356 27.3382
4.33046 6.93876 26.7303
4.22796 6.84973 27.5509
4.22049 7.19831 28.6853
4.40571 7.01303 27.2783
4.37034 7.04751 27.4105
4.26316 7.07883 27.8399
4.25122 6.80601 27.6312
4.28833 7.05839 28.6574
4.40556 7.2145 28.5486
4.35105 7.01399 27.0823
4.246 6.91375 28.1283
4.31476 6.97455 29.0151
4.42164 7.1669 27.4714
4.33253 6.59811 27.9313
4.29935 7.25364 28.3268
4.27145 7.2983 27.9664
4.22265 6.91446 27.9178
4.36582 7.06175 28.1972
4.36523 7.14577 28.4072
4.46844 6.85317 28.1816
4.41843 7.34532 28.434
4.34398 7.11114 30.0806
4.46491 7.37579 28.4648
4.23053 7.1652 28.1278
4.33535 6.99148 28.7845
4.30246 7.40593 27.7533
4.35089 6.93497 28.463
4.4194 7.19804 29.2255
4.32734 7.01893 26.9228
4.23629 7.05749 28.0668
4.36116 6.85308 29.0401
4.33734 7.29346 28.2584
4.30907 6.96988 28.381
4.21168 7.34 28.9113
4.31877 6.89961 28.1974
4.32622 7.08948 28.4619
4.4307 7.17596 29.3595
4.50692 7.36448 28.9101
4.38441 6.9866 28.7641
4.26027 7.14889 29.3257
4.36698 7.46507 29.3201
4.34398 7.47368 30.3917
4.41495 7.97123 30.6665
4.40469 7.9675 32.5591
4.53714 7.73317 30.9706
4.32942 0 0