# pn-170911/CsIIA-av-Hmas-1280-1959.psd
# Power spectrum* (dif=0,1,2) (really just |FT|^2)
# NOTE: only the first half! (symmetric)
# weeks: 1280-1959
# 18121 clock-days, 6344 excluded
# PSD: 1441
105468 2.79992 0.0325799
2.50384e+06 31.9717 0.0225036
1.55609e+07 339.884 0.0291741
1.73327e+06 62.0728 0.0247163
2.23182e+06 160.785 0.0343941
639575 60.9881 0.0293418
449345 62.1458 0.0328333
321840 59.7812 0.0361218
255752 62.7328 0.0411774
197036 60.3693 0.0449539
160362 60.2225 0.0503279
132043 60.5148 0.056871
112571 61.2342 0.0638517
95444.4 60.5268 0.0709619
82794.1 61.539 0.0795783
72101 61.0787 0.0870188
62478.4 59.8547 0.0941614
54945.6 59.3667 0.103624
49966.3 60.8679 0.115243
44300.8 60.0294 0.124769
39933.7 59.8906 0.135388
36264.8 59.6701 0.146789
33036.7 60.0554 0.159122
30182.5 60.2314 0.17425
27582.1 60.1043 0.186125
25257.3 59.3681 0.197205
23712.8 60.0198 0.213994
22160.2 60.6173 0.232085
20273.7 59.5468 0.243627
18969.6 60.0525 0.261506
17652.6 60.0788 0.278478
16522.9 59.9945 0.297178
15583.7 60.3787 0.315768
14691.4 59.977 0.332464
13806.9 59.8693 0.348374
12923.8 59.5113 0.368175
12279.8 59.8431 0.392133
11692.1 60.1171 0.412964
11000 59.5465 0.42967
10511.2 59.5697 0.45253
10079.2 60.1368 0.478358
9417.87 59.3898 0.495534
8950.64 59.3893 0.52013
8537.18 59.4967 0.542958
8229.62 59.5008 0.568851
7751.24 58.9903 0.589734
7482.77 59.7202 0.622585
7169.1 59.412 0.644442
6876.37 59.2247 0.671686
6624.21 59.4198 0.699986
6370.36 60.056 0.7359
6073.85 58.969 0.751945
5832.42 58.871 0.777934
5619.7 59.3597 0.811879
5451.11 59.739 0.851189
5217.37 59.2222 0.871895
5028.18 58.8809 0.89738
4784.24 58.3728 0.920392
4698.4 59.0734 0.963765
4503.4 58.3612 0.985279
4330.28 58.2287 1.01701
4152.16 58.2661 1.04975
4103.04 58.4882 1.08786
3973.64 58.8749 1.12871
3790.57 57.8513 1.14831
3711.36 58.8097 1.20086
3551.85 57.4793 1.20821
3496.68 58.1823 1.26056
3377.25 58.0189 1.29716
3271.18 57.9619 1.32957
3167.47 58.0306 1.3732
3084.1 57.683 1.40199
3016.06 57.5103 1.43675
2922.36 57.915 1.48183
2807.71 57.2667 1.5093
2739.85 57.3174 1.55171
2706.49 57.9748 1.606
2594.59 56.8285 1.62256
2557.4 57.6067 1.68116
2466.73 57.0092 1.70522
2420.45 57.2513 1.75562
2311.91 56.564 1.78409
2284.73 56.9805 1.83615
2202.2 55.8662 1.84103
2182.98 56.2354 1.90172
2097.95 56.76 1.96358
2060.94 56.6177 2.00185
2019.78 56.7442 2.05342
1967.22 55.9806 2.07746
1946.5 57.1309 2.16263
1898.54 56.8704 2.19825
1823.92 56.1166 2.22276
1795.89 55.9101 2.26069
1759.3 55.814 2.30659
1716.93 55.2463 2.33121
1693.97 56.1082 2.41822
1621.83 55.3461 2.43608
1618.03 56.0615 2.51482
1572.65 55.4932 2.55083
1547.39 55.756 2.61357
1494.53 54.9488 2.62314
1470.78 55.0087 2.67485
1427.36 54.465 2.70351
1410.15 55.0021 2.77788
1412.81 55.4541 2.86249
1365.62 54.5692 2.8688
1321.54 54.4275 2.91644
1312.27 55.2071 3.00428
1274.45 54.2361 3.01557
1257.4 54.3633 3.08094
1238.39 54.9786 3.16565
1199.63 53.4975 3.13827
1185.34 53.788 3.21845
1166.72 54.3035 3.30861
1138.53 53.6681 3.30876
1116.79 53.5886 3.37142
1090.24 53.2046 3.40701
1069.11 53.1357 3.45756
1043.82 53.1404 3.52267
1025.63 52.9834 3.56203
1019.13 53.424 3.66214
1005.3 53.3116 3.7129
983.141 53.0802 3.7582
958.231 52.6456 3.77632
931.422 52.1736 3.81425
932.662 52.3737 3.88879
918.976 52.7879 3.98062
894.151 52.1092 3.99511
891.746 52.5513 4.08942
859.898 51.6522 4.0742
866.07 52.6077 4.22478
850.544 52.3601 4.26112
829.476 51.707 4.27297
809.79 51.3601 4.3049
803.317 52.2248 4.44601
790.352 51.9431 4.49528
769.427 51.1943 4.48608
767.873 51.9146 4.61145
744.49 50.8855 4.59701
734.306 51.2495 4.68689
727.928 51.1941 4.74552
717.279 51.5478 4.85233
713.448 51.6849 4.93788
692.596 51.1036 4.95684
675.471 50.9223 4.98737
676.532 50.9828 5.07397
666.715 50.6369 5.10629
657.164 50.5234 5.16138
655.072 50.9161 5.26567
632.444 50.5154 5.30265
621.476 50.0538 5.32933
612.159 49.6858 5.36308
603.67 49.6307 5.42889
591.618 49.377 5.4633
582.947 49.3832 5.53085
577.383 49.3496 5.6053
577.302 49.9105 5.74201
559.629 48.8344 5.67859
548.476 48.8401 5.75383
545.325 48.4744 5.79029
543.15 49.1481 5.93369
536.874 49.3818 6.03371
534.216 49.7218 6.14935
513.784 48.4755 6.08356
513.933 48.8527 6.20109
508.077 49.205 6.3277
498.944 48.5254 6.31114
490.601 48.3223 6.35352
488.311 48.6775 6.46233
482.389 48.508 6.53099
474.832 48.709 6.63812
466.578 48.1518 6.63811
458.693 48.0676 6.70388
453.227 48.2031 6.79246
450.555 47.4578 6.75911
447.481 48.0284 6.94425
443.002 48.031 7.00239
434.802 47.9465 7.0846
429.469 47.4026 7.0745
425.748 47.7609 7.18262
416.281 47.4001 7.23951
408.407 47.0967 7.26435
405.704 47.1482 7.35667
402.553 47.0493 7.40549
394.161 46.7639 7.44622
392.253 47.0865 7.56936
388.938 46.5688 7.57343
385.347 46.9186 7.7255
383.262 46.9295 7.76635
370.878 46.2133 7.75742
372.46 46.3601 7.87042
360.669 45.6363 7.84771
366.919 46.6493 8.06661
357.155 45.8874 8.01983
351.685 46.3439 8.20538
349.541 45.9779 8.17513
343.629 45.6718 8.22382
338.736 45.6871 8.3224
337.978 45.9251 8.46424
335.024 45.8159 8.52014
328.576 45.3761 8.50558
327.052 45.7815 8.66658
318.811 45.1395 8.63417
317.473 44.8727 8.68061
311.814 44.5832 8.70561
309.637 45.179 8.88074
308.989 45.1995 8.97678
304.713 44.987 9.04025
300.504 44.2835 8.98127
298.101 44.8766 9.16562
296.932 45.4381 9.38111
292.663 44.4954 9.28253
286.773 44.0539 9.23898
287.643 44.4504 9.46458
282.531 44.5118 9.54429
277.11 43.7167 9.44299
275.766 43.9066 9.59038
274.72 44.0443 9.66701
271.429 44.0536 9.8312
269.483 44.2204 9.9007
267.965 44.1476 9.96987
263.105 44.0474 10.0402
259.033 43.3884 9.99593
258.235 43.7121 10.1455
256.224 43.2926 10.1435
252.409 43.1136 10.1814
248.903 43.3428 10.3453
243.675 42.7119 10.2538
244.122 43.0857 10.4938
241.063 42.87 10.5128
237.888 42.1385 10.4221
235.524 42.3222 10.5264
233.817 42.684 10.7076
231.882 42.4041 10.6978
229.612 42.5436 10.8904
228.886 42.4932 10.9122
226.896 42.3952 10.9895
225.655 42.7351 11.1916
222.268 42.3351 11.1822
220.711 42.0269 11.1635
217.437 42 11.261
216.27 41.8167 11.2719
214.391 42.1972 11.5265
210.657 42.0999 11.5879
211.534 42.3033 11.6964
209.378 41.8069 11.6513
207.345 42.1198 11.8467
204.201 41.6037 11.7797
203.461 41.9623 12.0101
200.008 41.5242 11.9602
196.806 40.8654 11.8718
194.735 40.9263 11.9776
193.483 40.9196 12.0619
193.819 41.1969 12.2266
190.418 40.9102 12.2665
190.5 41.1997 12.4082
186.873 40.7566 12.3859
186.488 41.0171 12.5762
184.454 40.2138 12.3785
183.656 41.6353 12.9924
181.007 40.5666 12.7396
178.889 40.1347 12.6561
177.222 39.9199 12.6938
177.971 40.715 13.0503
174.616 39.8274 12.849
172.787 40.0868 13.0625
170.873 40.2394 13.1551
171.282 40.0903 13.1966
169.201 40.0967 13.2991
166.916 39.739 13.3425
166.688 39.6303 13.398
164.954 39.833 13.5208
162.2 39.1552 13.3793
161.796 39.6773 13.6955
160.265 39.3169 13.6266
159.285 39.1135 13.678
157.055 38.9384 13.7186
157.514 39.4075 13.9757
156.257 39.0189 13.9428
153.571 38.9114 13.9999
151.904 38.996 14.0965
152.666 38.9266 14.1809
149.144 38.5911 14.124
147.24 38.2105 14.1605
147.413 38.6322 14.299
145.591 38.7421 14.5391
143.823 38.3689 14.4526
144.224 38.4723 14.6356
143.677 38.7449 14.7795
141.997 38.631 14.8616
142.017 38.5195 14.9543
141.148 38.8244 15.1186
137.187 37.8411 14.9039
138.954 38.5556 15.2451
136.679 37.7792 15.0173
134.303 37.6538 15.0978
137.355 38.2201 15.3138
131.877 37.1842 15.1339
133.139 37.6582 15.3542
130.398 37.4096 15.3781
130.698 37.2943 15.3861
129.367 37.6055 15.6569
128.62 37.4438 15.6527
125.941 37.2383 15.6909
124.683 36.5695 15.5229
123.504 36.7716 15.6827
123.68 37.2667 15.9619
122.137 36.7057 15.9115
121.7 37.0839 16.1399
121.499 36.7659 16.0831
120.639 36.6475 16.1498
119.197 36.3975 16.1331
117.754 36.3452 16.2104
116.842 36.1408 16.2077
117.652 36.3548 16.4095
115.985 36.191 16.3634
115.381 36.2765 16.566
113.976 35.9402 16.4847
113.462 36.2276 16.7753
114.06 36.2881 16.8442
112.088 35.7651 16.7303
109.746 35.8068 16.8895
109.061 35.8642 16.9811
107.983 35.2116 16.8185
109.794 35.9384 17.1374
107.421 35.5674 17.1811
107.049 35.4964 17.2239
106.083 35.1611 17.1681
106.086 35.6084 17.4913
103.928 35.001 17.2973
104.892 35.3592 17.5079
102.486 35.3806 17.693
102.122 35.0196 17.5705
102.008 35.0806 17.6485
100.835 35.0989 17.8664
99.2745 34.7072 17.7501
98.3761 34.4082 17.7291
97.8895 34.6284 17.8808
97.9195 34.8594 18.1514
96.5344 34.3377 18.0161
98.1359 34.4105 17.9901
95.4567 34.3859 18.271
95.8294 34.7379 18.4306
95.7258 34.7705 18.5161
94.6081 34.5532 18.6132
92.9075 33.9576 18.2463
91.632 33.7821 18.4584
93.5054 34.6567 18.9254
92.2307 33.9515 18.5951
90.9507 34.2895 19.013
90.8945 33.7654 18.6381
90.0349 33.5497 18.8132
90.9355 34.1375 19.1636
88.9398 33.8898 19.1117
88.4662 33.6526 19.071
87.0946 33.357 19.027
87.724 33.8059 19.3575
85.9998 33.4608 19.2747
85.4785 33.5561 19.5411
85.0093 33.2072 19.26
84.96 33.5293 19.6818
83.8166 32.8442 19.3439
83.2104 32.7612 19.2783
82.7889 33.0576 19.7295
83.3839 32.9375 19.6761
81.3602 32.6746 19.7162
80.7488 32.7394 19.7682
79.5392 32.6906 19.9905
80.6963 32.7371 19.985
80.4534 32.8831 20.1133
78.3106 32.1286 19.8174
78.7085 32.106 19.8411
78.2707 32.378 20.1896
77.2083 32.3222 20.2541
76.6591 31.9272 20.1489
76.9775 32.196 20.3812
75.5635 31.6267 20.0756
75.1787 31.8703 20.3562
74.7265 31.9701 20.5447
73.8952 31.5059 20.4624
73.8277 31.532 20.4684
73.6976 31.6215 20.6811
73.5994 31.9896 20.9577
72.6726 31.5493 20.752
71.123 31.0557 20.5402
71.4567 31.2447 20.7835
71.7311 31.3474 20.9025
70.8542 31.112 20.8767
70.9003 30.9484 20.8654
69.2263 31.0856 21.1835
69.8791 31.3423 21.2528
69.7107 31.4838 21.6061
69.1715 31.0693 21.3422
68.5471 30.9472 21.326
68.1393 30.8076 21.3676
67.2549 31.0918 21.7667
67.7049 31.283 21.9827
66.8318 30.8022 21.7242
66.7607 30.5675 21.6288
66.6386 30.9138 21.8578
65.3643 30.5269 21.8627
65.8536 30.849 22.1304
64.715 30.6343 22.1024
64.2348 29.7868 21.5639
64.0881 30.4002 22.218
64.1031 30.2488 22.1092
62.7463 29.937 21.9124
62.8479 30.3643 22.4901
62.2254 30.0222 22.3543
62.1289 29.8112 22.194
62.5162 29.9538 22.3837
61.2398 29.7827 22.3676
61.4208 29.5925 22.3166
60.4171 29.6151 22.4391
60.4888 30.0697 22.8573
60.3563 29.8575 22.8683
59.6557 29.6219 22.7618
59.5419 29.5437 22.8217
58.6227 29.3249 22.7842
58.5142 29.3787 22.9507
59.046 29.425 22.9568
58.3117 29.3713 23.0933
57.9649 29.2557 23.0463
56.7684 28.933 22.927
57.3555 29.1526 23.0708
57.0248 29.2973 23.5467
57.3809 29.3291 23.5719
56.1956 28.9701 23.4352
56.0177 29.0628 23.6524
56.0181 29.145 23.7116
53.9848 28.3912 23.2665
54.8454 28.5135 23.2971
54.0756 28.5807 23.5415
54.4556 28.9339 23.9731
53.7561 28.4848 23.7171
53.652 28.4902 23.9038
54.0326 28.5709 23.9563
53.1856 28.3802 23.9
52.6881 28.3746 23.9002
52.3546 28.2495 24.0459
52.3649 28.2502 24.0332
52.1844 28.5412 24.5074
52.4026 28.7336 24.6588
51.4235 27.8931 24.0705
51.0622 27.8203 24.2021
50.5518 27.7655 24.0841
50.4648 27.7233 24.1289
50.6553 28.0265 24.6243
49.3789 27.7616 24.5622
50.0538 27.7899 24.5719
49.3792 27.8868 24.8126
48.9208 27.4812 24.4349
49.3069 27.8864 25.1093
49.2241 27.8502 24.9914
48.4703 27.3403 24.6644
48.323 27.6068 25.1497
47.8229 27.0473 24.5878
47.9699 27.4018 25.0286
47.9183 27.1983 25.0243
47.9421 27.1634 24.9222
46.6126 27.4133 25.4649
46.896 27.123 25.1328
46.7007 26.909 25.0579
45.9383 26.8655 25.1637
46.1104 27.1002 25.5637
45.6932 26.7795 25.3415
46.0314 26.8503 25.2792
44.8828 26.5336 25.2681
45.2985 26.6055 25.4157
44.5813 26.419 25.4363
44.9132 26.6088 25.5957
44.398 26.8767 26.0514
44.3742 26.4103 25.5837
43.9824 26.1995 25.4437
43.7157 26.1896 25.7109
43.4896 26.4294 25.812
42.9579 26.4075 26.0482
43.2864 25.9533 25.4793
42.9022 26.1819 26.02
42.7061 26.0329 26.0674
42.865 26.4483 26.4345
42.2755 26.0583 26.2509
42.3535 26.1717 26.2316
41.2734 25.6318 25.9961
41.1068 25.6056 26.0235
41.4039 25.8351 26.2477
40.7665 25.4556 26.105
40.533 25.4623 26.1904
40.8772 25.7464 26.4685
40.858 25.6295 26.3184
40.3528 25.4721 26.5475
40.2491 25.3803 26.4609
39.9068 25.1267 26.3613
40.1393 25.6659 26.7554
39.4182 25.183 26.5786
39.5078 25.149 26.6203
38.8753 25.122 26.6249
39.2203 24.975 26.537
38.6551 24.9983 26.7589
38.223 24.6249 26.409
38.5718 25.1864 27.1092
38.2497 24.9638 27.0427
38.3421 24.9979 27.0269
38.2116 24.9254 27.1808
38.0594 25.055 27.1422
37.8291 25.1419 27.4909
37.4717 24.6727 27.1833
37.1004 24.7762 27.3495
36.8694 24.257 26.8646
37.0928 24.385 27.114
36.6229 24.4928 27.3698
36.6558 24.8829 27.6987
36.3242 24.5785 27.5878
36.2247 24.4321 27.5039
35.4998 24.2824 27.6247
35.6697 24.3318 27.5086
35.3606 24.0413 27.3254
35.5522 24.028 27.4718
35.3613 23.9402 27.6458
35.285 24.135 27.5617
34.5637 23.9959 27.7626
34.6889 23.7541 27.5406
34.6869 23.9899 27.9288
34.811 24.1467 28.0863
33.809 23.3412 27.4354
34.6379 24.2015 28.3485
33.992 23.7281 27.9938
33.855 23.8157 28.1481
33.6542 23.6255 28.0932
33.8347 23.7521 28.158
33.0435 23.4076 28.1106
33.743 23.4688 28.1299
33.5276 23.8316 28.5485
33.0319 23.5771 28.4455
32.784 23.2978 28.165
32.52 23.3942 28.4653
32.8255 23.2466 28.3616
32.3841 23.3777 28.7192
32.5506 23.3941 28.6295
32.2901 23.2814 28.6925
31.9636 23.2803 28.522
31.8685 23.2795 28.8046
31.2949 22.5025 28.0669
31.3765 22.8775 28.5273
31.4413 23.1229 28.883
31.2714 23.2462 29.171
31.1098 22.6883 28.5495
30.9557 22.698 28.815
31.1372 22.8143 28.7245
30.8381 22.7989 29.0788
30.6603 22.5893 28.9207
30.989 23.0149 29.4392
30.1077 22.4974 28.9438
30.083 22.1518 28.4796
29.9685 22.3377 28.7266
29.7461 22.3148 28.8496
29.4154 22.31 29.2073
30.0012 22.4097 29.0096
29.6274 22.3353 29.2226
29.5607 22.3848 29.2247
29.5896 22.5906 29.7537
29.1822 21.9808 29.1541
28.9981 22.0859 29.2647
28.9718 22.1277 29.6996
29.0146 22.2046 29.4365
29.0146 22.417 29.8134
29.1142 22.2848 30.0102
28.6647 21.8119 29.3478
28.6525 21.9833 29.3003
28.1636 21.8353 29.6201
28.1783 21.7964 29.3883
27.7984 21.6199 29.594
28.0968 21.6891 29.4453
27.8955 21.8447 29.9028
27.5349 21.6124 29.8928
27.708 22.0075 30.3961
27.2308 21.27 29.5042
27.4607 21.7341 30.0333
27.2261 21.4067 29.8113
27.5587 22.1769 30.6286
27.0027 21.2784 29.7618
26.7115 21.2128 29.8128
26.9087 21.384 30.0493
26.7034 21.5617 30.4151
26.8086 21.328 30.2296
26.6242 21.2417 30.2522
26.295 21.06 29.868
26.6209 21.1648 30.0556
26.2884 21.2474 30.3816
25.8729 20.8679 29.9886
25.9862 21.0685 30.2366
25.7419 20.5641 29.7407
25.826 20.9803 30.2917
25.5112 20.8549 30.349
25.7209 20.89 30.3118
25.4882 20.8193 30.468
25.2633 20.9013 30.6292
24.9093 20.584 30.4697
25.2612 20.6278 30.6769
25.2681 20.6691 30.548
24.8613 20.4788 30.3523
25.0714 20.335 29.9577
24.6661 20.1906 29.9548
24.3832 20.1091 30.2174
24.622 20.1855 30.1394
24.4809 20.2684 30.4217
24.3763 20.3706 30.7103
24.2914 19.9695 30.2078
24.1057 20.4392 30.9601
23.9852 20.0014 30.4373
24.2464 20.3745 30.8816
23.7593 19.9778 30.7105
23.8948 20.0501 30.6843
23.9827 20.0823 30.9345
23.9563 20.041 30.7152
23.8007 20.3098 31.4393
23.6181 19.8393 30.609
23.1871 19.6854 30.7703
23.4061 19.7797 30.7941
23.1736 19.9194 30.9624
23.039 19.7006 30.9937
22.986 19.8564 31.2204
23.0995 19.5974 30.8904
22.6789 19.7839 31.668
23.0048 19.6167 30.78
22.5856 19.3595 30.8332
22.7014 19.7286 31.3705
22.6115 19.3621 30.9784
22.7107 19.5888 31.4148
22.6973 19.7536 31.6546
22.3375 19.6396 31.513
22.3702 19.4095 31.2445
22.364 19.7123 31.8529
22.1292 19.14 30.9347
21.8736 19.2852 31.4974
21.97 19.2575 31.5672
21.7985 19.0894 31.1005
21.5649 18.9192 31.1535
21.7552 19.1552 31.2242
21.661 18.9436 31.3484
21.5415 19.4161 32.0727
21.5548 19.2308 31.8595
21.2117 18.7143 31.1519
21.3968 19.1668 31.7547
21.2544 18.8971 31.6269
21.3397 19.0936 31.9334
21.3015 19.1161 32.2495
21.4154 19.0942 31.9099
20.9767 18.7106 31.5946
20.7447 18.8198 31.8789
20.753 18.5861 31.4754
20.6504 18.8164 31.9461
20.585 18.5385 31.4232
20.6215 18.9173 32.2651
20.4106 18.6195 32.0668
20.3813 18.589 32.0125
20.5532 18.8095 32.3358
20.1988 18.5155 31.8729
20.0354 18.3393 31.8046
20.1561 18.4086 31.979
20.169 18.5026 31.6243
19.6224 17.9818 31.5907
19.5738 18.0608 31.7857
19.8743 18.543 32.4096
19.9152 18.2926 31.8657
19.8049 18.1971 32.1788
19.7476 18.333 32.1534
19.6695 18.4029 32.62
19.3872 18.1693 32.3841
19.5582 18.0592 32.2861
19.5767 18.0467 31.8585
19.4803 18.4992 32.9511
19.3151 17.9223 32.1738
19.1768 17.8924 31.7378
18.8549 17.9437 32.2238
18.9083 17.8249 32.2822
18.8548 17.5929 31.8989
18.8433 17.8448 32.4787
18.7839 17.8787 32.5264
18.8335 17.6846 32.1483
18.6405 17.6537 32.3053
18.7888 17.8464 32.5737
18.6364 17.743 32.6059
18.4636 17.3615 31.8617
18.1745 17.2766 31.9503
18.6047 17.5529 32.3569
18.4438 17.5685 32.3399
18.2054 17.4068 32.2117
18.1977 17.3681 32.2615
17.8554 17.1987 32.0471
18.1252 17.3573 32.5309
17.9957 17.3691 32.4234
17.8458 17.1878 32.0453
17.8595 17.2614 32.6164
17.9357 17.2801 32.6403
17.7596 16.9233 32.0302
17.4977 17.0114 32.3947
17.6551 16.9844 32.3607
17.758 17.2703 32.8159
17.647 17.0081 32.3941
17.4841 17.1438 32.7514
17.4309 16.908 32.3303
17.4034 17.0683 32.8188
17.3806 16.9294 32.8728
17.4016 16.943 32.7226
17.4399 16.9065 32.3997
17.1959 17.0743 33.1424
17.3185 17.1115 33.0923
16.9844 16.7867 32.9225
16.9469 16.6701 32.3903
17.1308 16.9478 33.0692
16.8021 16.6106 32.6932
16.9131 16.666 32.5499
16.7752 16.7241 33.1116
16.7206 16.6977 32.7444
16.8661 16.4592 32.6295
16.785 16.4807 32.5794
16.5349 16.387 32.4851
16.5075 16.3147 32.5047
16.6212 16.3944 32.4103
16.4233 16.5926 33.3904
16.2678 16.1275 32.3005
16.2916 16.101 32.5085
16.3631 16.3236 32.946
16.1745 16.3527 33.0052
16.2473 16.4755 33.166
16.0978 16.3211 33.007
16.079 16.288 32.9313
16.1003 15.9985 32.5147
16.0655 16.1416 33.1412
15.9495 16.0954 33.0398
15.9766 15.9333 32.5189
16.0446 16.1535 33.0814
15.8107 16.0864 32.8841
15.8777 16.2566 33.0773
15.5765 15.8911 32.7907
15.5619 15.7606 32.8668
15.6745 15.8232 32.6276
15.5369 16.1542 33.4709
15.6209 16.1252 33.695
15.5498 15.8539 32.8873
15.5028 16.1316 33.7093
15.43 15.8576 33.0084
15.1926 15.7523 33.334
15.1271 15.7487 33.1883
15.3454 15.6136 33.1887
15.2397 15.6691 32.7909
15.2083 15.7057 33.3824
15.0832 15.707 33.0639
15.1306 15.5761 33.1665
15.0121 15.6408 33.2797
14.929 15.5573 33.2667
14.8915 15.4162 33.2051
14.9931 15.5735 33.3115
14.8968 15.5087 33.1178
14.9963 15.4846 33.1667
14.7041 15.3543 33.446
14.8372 15.5548 33.727
14.8146 15.2905 32.8041
14.4504 15.0955 33.0928
14.6988 15.3669 33.2973
14.7836 15.2512 33.1031
14.293 15.2151 33.2879
14.6893 15.3464 33.0939
14.4267 15.1524 33.3317
14.1984 15.1246 33.5747
14.3152 15.1729 33.3373
14.395 15.2332 33.4618
14.2619 15.1597 33.5158
14.2288 15.0455 33.4108
14.2499 14.8466 32.8087
14.1949 14.8131 32.9974
14.1979 15.1877 33.8919
14.2521 15.0212 33.27
13.9484 14.7807 33.0972
14.0314 14.8045 32.8712
13.9743 15.1147 33.9253
14.0399 15.081 33.8812
13.8337 14.7917 33.4214
13.9539 15.0058 33.7755
13.8558 14.7957 33.3485
13.871 14.7974 33.4128
13.8003 14.7854 33.507
13.6762 14.6067 33.0863
13.6518 14.708 33.7688
13.6867 14.5105 33.0538
13.5425 14.5185 33.4299
13.7575 14.7993 33.6587
13.5538 14.5099 33.2694
13.5243 14.8009 34.0737
13.44 14.5279 33.5627
13.5259 14.6983 33.8218
13.5816 14.536 33.2864
13.2937 14.352 33.3356
13.3196 14.5262 33.6226
13.3164 14.5444 33.8225
13.194 14.252 33.2498
13.2126 14.2858 33.2652
13.2149 14.2643 33.2602
13.1796 14.359 33.8533
13.1561 14.2232 33.3473
13.1575 14.1246 33.0735
13.0849 14.2701 33.9624
13.0019 14.1983 33.3766
12.9237 14.3369 33.9459
13.114 14.2063 33.5535
12.9234 14.143 33.2632
12.7943 14.0178 33.643
12.8596 14.1238 33.663
13.0317 14.2507 33.8356
12.7979 14.0974 33.5415
12.8425 14.0322 33.5685
12.8215 14.1542 33.8976
12.78 13.9998 34.0159
12.8552 13.9698 33.5539
12.738 13.9 33.4768
12.5904 13.9176 33.722
12.573 13.8196 33.5397
12.6451 13.7379 33.2007
12.5671 13.8194 33.127
12.4883 14.0044 33.8549
12.4238 13.8854 33.9323
12.5849 13.8133 33.6252
12.2875 13.6435 33.7841
12.3672 13.6933 33.3188
12.3825 13.5172 33.077
12.205 13.6675 33.6089
12.2542 13.769 33.7476
12.2235 13.5645 33.5104
12.1868 13.8126 34.0138
12.1074 13.3983 33.3853
12.1109 13.541 33.471
12.088 13.4816 33.3943
12.0398 13.3922 33.4497
12.1254 13.4454 33.2345
11.8295 13.4715 34.0228
12.0687 13.5482 33.6419
12.0991 13.6564 33.96
11.9928 13.4735 33.7595
11.8456 13.254 33.1183
11.8149 13.4744 33.9457
11.7766 13.3985 33.6314
11.692 13.3166 33.6976
11.8456 13.5402 34.5601
11.9866 13.5619 34.0617
11.7971 13.3344 33.9842
11.7569 13.2856 33.831
11.8009 13.1894 33.0832
11.6506 13.2579 34.0307
11.6267 13.1698 33.8466
11.5237 13.291 34.173
11.5561 13.122 33.7442
11.5927 13.2928 34.0083
11.5176 13.1539 33.7983
11.4704 13.2347 33.7955
11.5767 13.3138 34.2267
11.3952 13.0771 34.1247
11.4947 13.0354 33.8093
11.4572 13.0008 33.5087
11.3817 12.8052 33.6025
11.331 13.0987 33.8091
11.3394 13.377 35.469
11.5545 13.5804 35.152
11.5356 13.5248 34.5307
11.1834 13.1693 35.3098
11.5512 13.4302 34.7695
11.323 13.0782 34.2505
11.2864 12.9084 33.7545
11.2143 12.9355 34.1427
11.1969 13.0734 34.1824
11.1417 12.8461 34.0472
11.1499 12.856 33.876
11.1073 12.7367 33.743
11.0463 12.9291 33.9119
10.9787 12.5638 33.6905
10.9644 12.7048 33.4946
10.9101 12.6958 34.2366
10.8985 12.7356 33.8766
10.8598 12.4063 33.2312
10.687 12.3569 33.3735
10.8152 12.5736 33.7795
10.8296 12.4684 33.2869
10.7979 12.4775 33.7422
10.8338 12.4804 33.3188
10.6927 12.4524 33.5074
10.6454 12.4066 33.2526
10.602 12.204 33.3407
10.7204 12.5469 33.8509
10.6511 12.2692 33.249
10.569 12.3334 33.6469
10.6147 12.2605 33.6214
10.5819 12.1123 32.9887
10.5177 12.0481 33.1024
10.5904 12.1616 33.211
10.4466 12.3029 33.404
10.4362 12.1191 33.2619
10.4705 12.2783 33.8046
10.3789 12.0581 33.3088
10.3884 11.987 33.1124
10.4048 12.1215 33.4408
10.3334 12.0277 33.0875
10.3542 12.2422 33.7272
10.2592 12.1441 33.9766
10.2759 12.1534 34.019
10.3964 12.3326 33.8639
10.1971 12.1064 33.4344
10.1837 11.9457 33.8401
10.212 11.8927 32.97
10.1459 11.9239 33.659
10.3032 12.1741 34.0951
10.2828 11.9173 32.8124
10.0658 11.8107 33.2813
10.1043 11.8814 33.4936
10.0038 11.959 33.4243
10.0589 11.7984 33.2986
10.0088 11.8616 33.0779
9.92713 11.7086 33.1119
9.87757 11.7064 33.6829
10.0128 11.8367 33.7003
10.0249 11.8143 33.12
9.80715 11.5745 33.2622
9.8933 11.6764 32.9468
9.78918 11.7011 33.7443
10.014 11.7568 32.8509
9.64574 11.5105 33.2633
9.71834 11.6315 33.2059
9.72455 11.509 33.2847
9.81055 11.445 33.0573
9.69162 11.7064 33.4093
9.74262 11.4851 33.0261
9.63956 11.5521 32.9793
9.70276 11.4596 33.1562
9.57652 11.4292 33.2702
9.70888 11.5332 33.4475
9.66736 11.5045 33.399
9.64922 11.3961 33.0981
9.70743 11.5242 33.1196
9.47871 11.3283 33.0975
9.53894 11.2878 32.9788
9.54957 11.365 33.2858
9.52155 11.2544 32.285
9.41716 11.1877 32.9553
9.52675 11.2296 33.0787
9.41341 11.2372 32.8682
9.36041 11.0632 33.1649
9.52925 11.4577 33.133
9.36611 11.2703 33.0657
9.41179 11.1468 32.7447
9.40452 11.3102 33.334
9.33215 11.1467 33.0585
9.35015 11.3393 33.1019
9.26533 11.0386 33.0314
9.32253 11.1164 32.9961
9.23818 11.0923 33.2696
9.442 11.1707 32.6694
9.19756 11.0127 33.0034
9.20759 11.1177 33.1184
9.24496 11.0475 33.1786
9.16079 10.9125 32.9082
9.14674 10.9057 32.8195
9.23271 10.9806 32.7153
9.14633 10.9285 33.0375
9.14269 10.9157 32.6442
9.07096 10.7356 32.2618
9.13901 10.9564 32.9617
9.12781 10.9653 32.7252
9.09191 10.9871 33.2272
9.00631 10.8804 32.8342
8.99475 10.8723 33.008
9.00054 10.8128 32.5365
8.92083 10.7161 32.8757
9.00015 10.984 33.2096
8.9466 10.8286 33.1463
8.94926 10.7647 32.6906
8.96501 10.7049 32.7507
8.95189 10.7994 32.6029
8.85762 10.7023 32.6595
8.89932 10.7351 32.908
8.84772 10.6654 32.5783
8.83966 10.671 33.0248
8.93848 10.8519 32.9136
8.89529 10.7812 33.182
8.86368 10.668 33.1244
8.91523 10.6187 32.9711
8.83108 10.6839 32.794
8.74692 10.8035 33.3101
8.78744 10.6697 33.0009
8.68696 10.5413 32.5426
8.82217 10.5379 32.7534
8.6626 10.5454 32.7434
8.6653 10.5586 33.1679
8.84731 10.6424 32.831
8.80879 10.764 33.2099
8.61643 10.4693 32.9976
8.60779 10.4009 32.4911
8.62757 10.5118 32.6304
8.55253 10.405 32.4491
8.59386 10.6263 33.7088
8.65902 10.4316 32.3894
8.56912 10.3091 32.2393
8.59481 10.3337 32.9252
8.55757 10.4067 32.6798
8.59737 10.4355 32.8697
8.53951 10.3198 32.4823
8.45605 10.3389 32.7055
8.46945 10.3378 32.7276
8.54372 10.331 32.8
8.51547 10.3693 32.7857
8.388 10.2508 32.0425
8.36712 10.3096 33.1154
8.36697 10.2096 32.5287
8.38338 10.3193 32.8603
8.46772 10.2997 32.7526
8.32792 10.0485 32.1052
8.27105 10.1252 32.0647
8.29256 10.1904 32.8168
8.38958 10.2015 32.7626
8.34667 10.1309 32.3586
8.34913 10.2322 32.8015
8.20012 10.0512 31.9675
8.20104 9.94407 32.0843
8.20664 10.0753 32.5232
8.32851 10.1786 32.6118
8.19726 10.0127 32.5941
8.18462 10.2825 33.4727
8.22204 10.0748 32.1231
8.11021 9.84621 32.4849
8.28254 10.0361 32.1759
8.18818 10.2036 33.1822
8.18257 10.1828 32.9526
8.17968 9.92351 32.2322
8.13989 10.0075 32.4712
8.10273 9.91753 32.1541
8.08665 9.90354 32.2655
8.10289 9.93862 32.5014
8.05418 9.9665 32.6191
8.0983 9.81402 32.132
8.01026 9.90912 32.4996
8.08216 9.72205 31.9398
8.13113 9.91738 32.3013
8.04129 9.75366 32.1886
8.01614 9.89807 32.0964
8.00383 9.85461 32.0724
7.90602 9.65789 32.2365
7.9559 9.84066 32.4752
7.91653 9.87193 32.1489
7.85882 9.5665 31.6711
7.90564 9.69356 32.1582
7.87321 9.69387 32.066
7.93971 9.64875 31.8991
7.9009 9.82915 33.0583
7.93814 9.75756 31.8902
7.84971 9.65294 31.9127
7.90819 9.64707 31.8198
7.80399 9.64207 32.3071
7.87012 9.76657 32.6021
7.81979 9.69838 32.5068
7.93081 9.76017 32.2875
7.81807 9.58822 32.0842
7.77598 9.50136 31.7452
7.82795 9.5837 32.4419
7.82577 9.58369 31.6774
7.71952 9.34744 31.6298
7.75167 9.5478 31.7717
7.71648 9.46402 31.9803
7.70856 9.34622 31.6745
7.6984 9.50162 32.1284
7.71447 9.65502 32.2695
7.67876 9.53396 32.205
7.67204 9.43767 31.9408
7.71708 9.53547 32.5513
7.74621 9.56304 32.5785
7.73237 9.52644 31.8263
7.67747 9.40115 31.6164
7.6342 9.4505 32.0635
7.66244 9.52348 32.2451
7.65906 9.40333 32.0314
7.60885 9.42619 32.0793
7.62817 9.31435 31.5377
7.60287 9.42012 31.9917
7.53869 9.36649 31.8612
7.54344 9.19698 32.0353
7.62077 9.45503 31.7395
7.51397 9.32976 32.1476
7.5504 9.22949 31.7582
7.53881 9.37047 31.9044
7.53211 9.17539 31.4335
7.51504 9.21507 31.6634
7.53477 9.25353 31.775
7.48647 9.39882 31.9668
7.50853 9.25966 31.9053
7.4674 9.38541 32.0524
7.39834 9.15592 31.9388
7.47613 9.14419 31.6872
7.35687 9.20246 31.7647
7.44833 9.21876 31.9037
7.41182 9.21762 31.6322
7.42068 9.18328 31.9598
7.43497 9.1836 31.4496
7.41907 9.04585 31.7179
7.33753 9.20993 31.8072
7.38834 9.09808 31.6369
7.39266 9.08265 31.4785
7.25481 9.0608 31.9813
7.37216 9.13926 31.8468
7.33774 9.13522 31.4492
7.33619 8.97715 31.2024
7.28406 9.04932 31.9553
7.31717 9.11461 31.7856
7.33203 9.11254 31.5787
7.24913 9.04608 31.768
7.23523 9.13035 31.5717
7.29154 8.99647 31.401
7.22198 8.96706 31.7837
7.26892 9.12237 31.9764
7.27069 9.10085 31.7157
7.11627 8.98632 32.0732
7.24243 8.98393 31.5152
7.23158 9.02208 31.7896
7.23064 9.0023 31.8406
7.20753 8.99307 31.5448
7.25587 8.86671 31.4518
7.20031 8.93871 31.658
7.19301 9.01092 31.3986
7.12612 8.76242 31.2413
7.19608 8.99164 31.7704
7.15917 8.97948 31.7932
7.16741 8.77214 31.5639
7.22461 8.90605 30.9596
7.01127 8.65289 31.5194
7.12767 8.97223 31.715
7.19318 8.88001 31.7246
7.15783 8.9993 31.9583
7.13504 8.77318 31.018
6.99429 8.85713 31.698
7.1271 8.84994 31.3913
7.06664 8.8829 31.6249
7.06929 8.89815 31.5858
7.02863 8.83257 31.8462
7.07927 8.70458 31.4717
7.02943 8.84462 31.5851
7.07198 8.70789 31.2166
7.00067 8.82862 31.4689
7.06517 8.847 31.7216
7.06539 8.8296 31.8478
7.05683 8.85008 31.9593
7.07019 8.89317 32.4731
7.073 8.88135 31.8954
7.05413 8.88031 32.4752
7.0968 9.19863 33.3774
7.0523 9.24587 34.1548
7.19714 9.35255 32.4978
6.99591 9.08841 33.9506
7.2326 9.46084 33.9248
7.17552 9.27726 32.7528
7.02019 8.90746 32.2034
7.01139 8.87507 32.0196
7.02226 8.65907 31.7316
6.99487 8.85188 31.6526
6.8645 8.78797 32.1398
6.9279 8.78549 31.6976
6.91368 8.70894 32.0355
6.95965 8.63093 31.1326
6.9036 8.58494 31.2819
6.90787 8.65327 31.6631
6.95437 8.6015 31.3623
6.85542 8.6597 31.653
6.8669 8.57373 30.9734
6.82214 8.53072 31.539
6.80991 8.59205 31.0459
6.83291 8.55188 31.2767
6.84232 8.60716 31.3812
6.84675 8.55138 31.4012
6.80325 8.52288 31.0809
6.85652 8.48803 31.1178
6.78639 8.59967 31.3055
6.80853 8.42401 31.2304
6.77544 8.44395 30.9604
6.7702 8.34784 30.8828
6.7933 8.47056 31.0524
6.75902 8.44502 31.0805
6.69857 8.39568 30.9428
6.76204 8.29837 30.8412
6.70029 8.45648 30.8274
6.73102 8.33469 31.4578
6.75107 8.53339 31.1369
6.71481 8.29625 31.1617
6.75703 8.53308 31.2597
6.72091 8.40873 30.7723
6.65834 8.22295 30.5243
6.72339 8.29088 30.9692
6.71077 8.29791 30.4231
6.65026 8.24479 30.6898
6.66759 8.30877 30.1931
6.61711 8.1664 30.792
6.68886 8.27378 30.9784
6.6859 8.15641 30.4584
6.61351 8.23809 30.4886
6.66673 8.29767 30.8257
6.57905 8.15357 30.6548
6.65616 8.24509 30.7504
6.66869 8.32483 31.1385
6.67714 8.38335 30.8829
6.60947 8.33837 30.8116
6.59498 8.27028 30.9639
6.61679 8.15471 30.5047
6.62039 8.26993 30.5587
6.58149 8.19449 30.8731
6.64042 8.16072 30.253
6.51322 8.10641 30.6467
6.53285 8.04758 30.3577
6.48118 8.21584 30.9196
6.56406 8.24423 30.9103
6.60206 8.16498 30.3482
6.5492 8.06699 30.5084
6.52001 8.13282 30.5733
6.51313 7.98687 30.2455
6.52858 8.04183 30.1163
6.51382 8.05848 30.4216
6.4735 8.00323 30.4249
6.56838 8.19585 30.429
6.48614 8.13642 30.9498
6.52884 8.1733 30.7987
6.55604 8.05656 30.6987
6.54713 8.06049 30.4245
6.49981 8.21883 30.6486
6.54408 8.02149 30.3183
6.42116 8.09106 30.9362
6.52334 8.11228 30.6522
6.46255 8.08322 30.3019
6.43884 7.96878 30.4745
6.44857 7.98543 29.7795
6.5156 8.00318 30.3642
6.46319 7.99775 30.2255
6.4739 7.92654 30.0272
6.43997 7.89278 30.1132
6.37394 8.01595 30.9514
6.46003 8.13784 30.5047
6.42092 8.07489 30.7031
6.39947 8.06588 30.6895
6.40186 7.95942 30.1664
6.38084 7.84176 30.4721
6.40684 8.07237 30.7144
6.44863 7.98504 30.5806
6.47592 7.9059 30.227
6.44614 8.0932 31.06
6.41926 8.01975 30.3596
6.44079 8.00979 30.2666
6.35342 8.05272 30.6034
6.39389 7.97414 30.7508
6.44569 7.91974 30.1107
6.36116 7.99631 30.7599
6.38034 7.83605 30.0154
6.33074 7.92831 30.1579
6.37766 7.87665 29.6181
6.32531 7.98681 30.488
6.34277 7.8276 30.3752
6.35055 7.86828 30.4039
6.37254 7.95267 30.3968
6.38556 7.71683 29.9748
6.3373 7.82586 30.149
6.2827 7.85897 30.0921
6.32172 7.86786 30.3215
6.33196 7.86443 29.8111
6.30625 7.8238 30.4359
6.28116 7.8512 30.5876
6.37518 7.86763 30.1311
6.31109 7.91321 30.6268
6.34605 7.89935 29.8004
6.27785 7.80192 30.511
6.3432 7.86543 30.2253
6.24465 7.84629 30.2169
6.27156 7.66563 30.0356
6.23691 7.90227 30.3728
6.27706 7.76753 30.0146
6.26853 7.84484 29.9853
6.29074 7.84902 30.3242
6.248 7.79498 30.4226
6.21298 7.7335 29.7379
6.23929 7.8387 30.2116
6.22453 7.7339 30.3427
6.27277 7.66039 29.4527
6.22729 7.86971 30.7253
6.27425 7.79589 29.8052
6.22425 7.66701 29.9221
6.17484 7.70251 30.3382
6.27217 7.80258 30.2479
6.2629 7.73234 29.6853
6.1814 7.8038 30.2919
6.20212 7.61435 29.9485
6.21948 7.6413 29.3849
6.22008 7.61303 29.6888
6.18593 7.755 29.8429
6.20752 7.64713 29.8587
6.2306 7.63498 29.4619
6.13955 7.55604 29.8273
6.20879 7.68127 29.7777
6.22787 7.84569 30.345
6.18648 7.57557 29.4908
6.19942 7.68178 30.1838
6.21977 7.64402 29.8262
6.1584 7.70711 29.9583
6.13966 7.58921 29.3895
6.15165 7.61297 29.9672
6.11322 7.80814 29.9685
6.17625 7.64271 29.6681
6.11558 7.61719 29.8083
6.1388 7.53951 29.5762
6.12734 7.59943 29.9705
6.10983 7.68651 30.0417
6.23226 7.67232 29.58
6.15251 7.43494 29.4877
6.12434 7.58424 29.8565
6.1631 7.51504 30.0977
6.19193 7.64176 29.628
6.11363 7.62446 30.1819
6.18712 7.68445 29.7598
6.06597 7.44232 29.3376
6.0659 7.53197 29.5002
6.121 7.60545 29.7863
6.09464 7.55247 29.6436
6.07951 7.60793 29.8782
6.15951 7.7393 29.9356
6.1002 7.48009 29.6476
6.07277 7.44849 29.4703
6.08731 7.63242 29.4395
6.1215 7.54149 29.7773
6.11262 7.54685 29.735
6.17721 7.58195 30.0543
6.11234 7.54644 29.4354
6.06142 7.5229 29.678
6.04726 7.44803 29.5389
6.08065 7.50032 29.8699
6.10837 7.6512 30.2361
6.11496 7.5917 29.8107
6.12108 7.52145 29.7086
6.08822 7.55045 29.4918
6.01091 7.51607 29.2203
5.98318 7.40389 29.4891
6.05991 7.43168 29.5819
6.09613 7.46705 29.2766
6.01521 7.58909 30.0272
6.07901 7.6314 29.6705
6.00032 7.49083 30.2089
6.0863 7.47408 29.6703
6.05278 7.5158 29.683
5.99648 7.55863 29.7625
6.09479 7.47657 29.3227
6.02322 7.56915 29.9159
6.07162 7.41429 29.4861
6.06933 7.48134 29.7233
6.04888 7.48671 29.5222
6.03226 7.38295 29.2791
6.0619 7.55048 29.8065
6.01522 7.43333 29.6433
6.09355 7.40228 29.6975
5.96572 7.5495 29.5742
6.07343 7.47284 29.8269
6.07777 7.58296 29.7404
6.00833 7.55565 30.0216
6.06192 7.50719 30.2881
6.04525 7.45495 29.0136
5.96545 7.41093 29.2641
6.01204 7.48056 29.8121
6.0083 7.47859 29.5506
6.00618 7.61065 30.0911
6.05709 7.42014 29.4203
6.01194 7.43138 29.4602
6.01555 7.40241 29.4082
5.97698 7.51274 29.5212
6.00539 7.37608 29.521
6.01334 7.36097 28.9833
5.94917 7.3763 29.8936
6.00811 7.47973 29.7911
6.01779 7.39997 29.4011
6.0342 7.31556 28.9417
6.01021 7.4398 29.8198
6.00867 7.4539 29.8952
5.99785 7.39274 29.1472
6.04596 7.41238 29.7288
5.95459 7.44139 29.2137
5.97394 7.39512 29.8639
6.02351 7.51066 29.4205
5.99892 7.35231 29.4352
5.98771 7.41745 29.7517
6.01187 7.47538 29.8865
6.06788 7.51521 29.8255
5.98345 7.50029 29.6195
6.0001 7.49758 29.8761
6.0265 7.45051 29.5029
5.89874 7.33263 29.3539
5.98303 7.47612 29.8321
5.99996 7.44112 29.8442
6.03231 7.47863 29.7168
5.98456 7.37655 29.6968
6.01242 7.48211 29.3114
6.00923 7.39811 29.3607
5.97348 7.43211 29.815
6.01503 7.54561 29.8397
6.03316 7.45484 29.9451
6.02006 7.40402 29.2766
5.97662 7.36073 29.539
5.9937 7.42843 29.4676
5.94283 7.47489 29.484
5.97834 7.39218 29.554
6.0148 7.31433 29.1167
5.90895 7.39221 29.9907
6.01907 7.45582 29.4295
5.94928 7.40137 29.9622
5.97823 7.50538 29.3133
5.9224 7.36273 29.5807
5.98516 7.37455 29.4689
6.00972 7.35296 29.8848
6.01779 7.49689 29.2055
5.94127 7.37368 30.2056
6.03743 7.61078 29.8082
5.94027 7.53189 30.2544
6.01391 7.51046 30.1312
5.95103 7.44184 29.5796
6.03004 7.43439 30.0835
6.03103 7.53994 29.4832
5.97372 7.46644 29.7363
6.0095 7.50917 29.5194
5.94096 7.31312 29.49
5.973 7.47317 29.8514
6.01943 7.55993 30.5128
6.06435 7.51485 29.6913
5.95217 7.44472 29.7411
5.98981 7.54829 30.2927
5.98643 7.45957 29.5887
5.92273 7.57802 31.0099
6.08676 7.54617 29.954
5.99493 7.64517 30.2547
6.00723 7.63637 30.073
5.95981 7.49979 30.326
6.01991 7.73499 31.5399
6.09847 7.79679 31.2288
6.08983 7.95305 32.3085
6.12382 8.27313 33.2102
6.22459 7.98433 31.6932
6.02098 0 0