# pn-170911/RbIIR-51-NIST-1280-1959.psd
# Power spectrum* (dif=0,1,2) (really just |FT|^2)
# NOTE: only the first half! (symmetric)
# weeks: 1280-1959
# 1 clock-days, 5 excluded
# PSD: 1441
47.4168 0.0345779 0.0144084
12001.3 0.0408815 0.0173479
108503 1.71106 0.0855453
10521.2 0.562478 0.00341833
3613.15 0.474944 0.150645
2618.58 0.468333 0.110549
3741.56 0.368481 0.132592
427.316 0.122008 0.315411
11941.6 3.26927 0.0959942
2395.49 0.608348 0.452671
263.561 0.082006 0.264186
559.007 0.190448 0.335284
355.146 0.221619 0.531897
493.95 0.569391 0.234513
779.939 0.500425 0.632986
1172.28 1.80152 0.316147
540.361 1.04367 0.379809
2492.42 3.50651 0.505707
1044.08 0.957543 0.207231
628.68 1.01042 0.446921
351.651 1.21259 0.18198
244.881 0.591899 0.250478
1300.6 2.42183 0.198517
2986.86 6.93422 0.11481
571.135 2.15725 0.287917
843.324 3.02002 0.0449891
3171.28 9.51182 0.0208425
573.476 1.79777 0.013237
1410.42 4.60869 0.0502977
4651.29 16.8276 0.0438245
1114.51 3.55489 0.132599
928.725 4.9444 0.0721487
1582.64 9.00268 0.0346073
1269.53 7.10001 0.0414662
1518.19 9.97739 0.0766251
1532.64 9.8083 0.235584
53.2218 0.668015 0.149289
4172.87 29.6464 0.240392
979.281 6.60445 0.178468
958.042 5.34351 0.431289
1570.7 11.2036 0.971416
1995.04 15.8725 0.635576
1374.63 12.4867 0.189398
127.37 1.60317 0.54658
1152.09 12.1301 0.229733
127.562 1.19859 0.647482
2155.68 20.6245 0.0518687
43.3148 0.551174 0.600518
637.625 7.2502 0.609696
28.9862 0.220723 0.193817
601.795 6.94003 0.115926
805.49 11.1775 0.241738
182.247 2.29046 0.415487
2234.72 28.5881 0.171395
1241.78 18.236 0.0657173
1672.22 20.0746 0.244946
964.748 15.7855 0.179613
2865.05 43.7159 0.430329
4055.53 58.4986 0.98137
1506.27 24.6864 0.233273
2549.27 47.6322 0.606292
268.908 5.76992 0.0277448
485.346 8.54894 0.320914
803.144 14.7256 0.526433
486.268 8.27973 0.000341989
1483.48 27.6398 1.45744
1002.5 17.5547 1.28335
1477.79 35.032 1.16971
27.0598 1.63027 0.240498
2569.36 59.4825 0.935109
477.363 9.11392 1.1467
3670.13 92.4708 0.719175
718.756 16.9445 0.0223358
24.4394 0.687035 0.874023
804.794 19.3857 1.09875
1399.89 40.6829 0.311907
4914.69 141.931 6.87798
1772.51 44.7172 2.1179
153.527 4.34211 0.11318
206.517 5.9345 0.231949
658.314 21.4778 0.1619
596.703 18.3424 1.10701
222.602 7.28566 0.193548
661.169 17.8456 0.491515
678.13 24.7146 0.763909
347.606 13.271 0.710812
730.961 22.7982 1.02574
307.475 11.4432 0.749306
401.792 18.3328 0.671606
93.3862 3.57949 0.0888729
751.872 25.0048 0.849203
855.486 41.4244 1.50954
723.297 26.7156 2.11046
817.441 30.1886 2.1042
558.929 23.6261 0.638969
236.518 11.459 0.53494
27.8698 2.46934 0.107023
830.921 36.1948 0.965742
25.8311 0.565586 0.445162
87.2116 5.11452 0.136753
919.713 40.3781 1.00211
221.192 12.4024 0.461486
250.138 12.3882 0.0687139
536.545 27.2891 2.91876
279.792 12.9042 2.20185
211.59 10.4576 1.06579
471.787 26.8333 0.33438
191.116 8.02224 0.760325
221.63 11.045 0.688331
342.964 19.6047 2.34178
269.313 16.3311 0.844062
11.6188 0.309245 0.102538
200.332 13.353 0.621524
4.56626 0.321751 0.102685
83.108 7.41859 0.426656
67.2418 5.34986 0.282085
167.83 8.1749 0.525555
536.458 37.1363 2.23948
14.6906 1.17602 0.019966
227.648 12.0679 1.21775
221.003 21.2366 1.45378
976.949 70.153 4.73794
224.699 20.7185 0.542792
155.876 8.43293 0.269969
673.052 49.5099 5.79977
715.129 50.9633 6.21821
682.23 56.0944 4.46818
17.1607 1.65876 0.941218
640.75 43.5539 2.77528
67.9692 3.67231 1.34545
220.027 18.682 0.509141
10.953 1.58813 0.197757
135.903 13.9736 0.464598
127.082 10.9113 1.52625
2.82218 0.92306 0.114909
193.144 13.7935 0.609402
12.3116 1.38104 0.0307221
444.926 37.1966 2.4101
146.733 15.4824 1.91498
94.3767 12.1726 0.852322
287.647 20.0141 1.37407
437.337 42.6078 4.25238
108.196 6.78884 0.336624
583.163 65.4168 6.31542
30.2769 1.81033 0.0747365
78.6951 6.01389 0.405779
44.7802 3.88449 0.77177
47.8337 8.19652 0.752313
369.519 45.5461 4.29716
324.026 35.4796 3.53007
6.77522 1.51878 0.0524398
5.28949 0.199985 0.306883
70.7198 7.02295 0.363975
57.8462 5.26381 2.07153
22.0319 3.42703 0.10147
14.8146 1.44332 1.44872
310.233 32.9557 6.00397
114.967 10.3683 2.5087
3.74675 0.0647849 0.444598
150.744 18.0916 1.58054
92.8174 9.09507 2.39768
53.3952 6.50037 0.739651
12.3512 0.6962 0.577989
149.428 17.9696 3.44402
5.16985 0.976317 0.107057
99.0834 14.4227 0.921449
127.475 15.9299 1.22858
24.1381 4.47687 0.820708
88.5884 9.31564 1.94489
3.66407 0.699215 0.113616
20.7143 5.4455 0.963501
48.9478 7.00144 0.588521
46.8318 8.08572 1.2582
552.592 66.0839 9.1877
16.7561 4.41985 1.30334
64.2551 10.1377 1.28396
7.07168 0.7942 0.608356
201.239 23.026 2.80561
69.4921 15.2064 1.49593
119.776 19.157 1.37227
17.6451 5.88892 1.81676
55.9694 4.4798 1.65632
71.0428 12.7622 1.26606
105.764 21.0985 2.9654
109.793 24.0347 2.195
88.7859 13.6922 1.21469
152.624 23.1501 5.61805
21.3911 4.06922 1.76398
135.36 16.2524 4.43755
99.6739 20.4529 2.28292
82.7 15.9995 2.69496
83.1622 17.9147 1.63864
188.857 31.1685 3.82712
365.109 64.8786 10.0271
144.419 37.3145 6.2573
19.9817 3.03325 0.904883
288.711 41.3502 8.17559
34.3391 6.41808 1.03702
28.7574 8.01492 2.21361
45.9199 12.3011 2.84972
175.661 31.5433 5.62995
340.408 65.4621 12.3054
17.4437 5.73767 1.28239
133.64 26.4285 5.07417
37.053 2.28586 0.371758
137.87 29.519 5.1065
56.9988 10.6205 3.35071
19.5273 1.93992 1.23729
2.2919 0.506703 0.0297943
25.9398 2.50647 0.327457
23.2808 6.20392 0.738832
50.4082 8.97788 0.789944
143.21 28.4076 6.43904
45.9367 7.12425 1.35933
67.3857 20.5536 4.74056
18.7458 5.4425 0.790678
102.51 14.3046 3.48241
138.539 37.2816 6.87771
34.6663 11.159 4.90938
103.41 19.4027 6.39041
20.6343 8.91959 1.86713
21.0511 4.35728 0.473114
74.0149 11.9852 4.04256
2.96122 0.585778 0.0628471
78.7211 15.608 3.91911
56.0594 20.3957 5.30093
102.2 21.2706 4.51494
51.894 11.4589 3.88396
145.495 31.7237 7.26062
74.0898 23.5068 5.71118
18.9198 6.24113 1.09976
77.4119 15.4214 2.84741
12.4479 3.25489 0.830054
74.7425 18.8693 3.02961
2.42164 0.0795352 0.240396
178.368 56.4917 16.1386
42.7528 9.3035 3.0148
1.75746 0.885225 0.601312
23.5419 4.14483 1.72504
30.6886 6.36621 0.974803
33.4656 14.2565 2.21433
19.7826 3.87468 0.15553
114.561 28.4853 11.747
65.8941 13.1902 3.379
13.7874 2.24226 0.450343
77.7202 29.9962 5.5689
132.347 37.2206 7.96304
24.5962 3.77116 0.287408
33.3707 6.83539 2.91269
83.2486 30.6918 7.92085
9.1982 2.56275 2.88009
71.7584 17.4415 3.98365
92.7169 33.959 9.90882
92.546 17.7642 4.53587
18.0048 7.33854 2.58225
50.8462 19.9577 5.60275
74.0522 21.158 5.14218
80.1542 29.8005 11.9456
146.415 30.9621 8.16457
4.3758 3.9837 1.95776
89.1332 24.7058 8.67765
330.324 99.0185 34.9315
69.3597 16.2807 5.26288
75.5762 21.1195 2.84773
112.892 34.2616 9.14593
3.43069 6.97974 4.30452
20.0035 2.30388 1.0783
45.0906 10.7343 2.02209
5.67256 7.17638 2.7796
84.7341 31.0799 8.60214
15.58 5.54542 4.14973
105.177 25.6267 7.46277
49.0362 21.1131 5.98346
12.8487 5.62881 1.73346
51.0314 22.6238 6.69606
24.1286 11.3773 4.66342
126.228 37.9689 7.74557
79.5097 32.0441 14.2844
50.573 14.4518 8.72145
136.957 41.3485 15.5048
4.72906 1.85317 0.438946
50.4779 27.6716 9.16195
22.3015 7.1197 3.04117
39.3428 7.1142 1.8082
90.0625 31.6733 10.9692
40.4218 12.5319 3.8037
22.1374 11.9792 5.15731
49.2919 21.0807 8.5345
3.84051 1.79299 0.361829
9.24741 1.211 0.279809
52.3214 34.2205 19.0764
117.204 45.7418 14.472
55.1225 27.0474 16.6631
59.3365 12.514 2.59821
115.995 41.5284 10.9148
31.9917 11.8302 4.42569
282.768 119.845 39.3604
3.91729 1.75113 1.60025
20.1211 16.185 8.23312
146.118 58.6883 28.4809
26.0287 21.5678 10.8223
5.467 2.95052 4.88915
15.5777 1.40786 0.325549
37.5188 21.8638 13.3055
119.71 42.2272 10.5594
4.24343 0.978624 0.0481307
15.8215 17.1955 9.53366
54.964 17.3857 4.08203
147.62 54.7997 20.9607
55.0965 18.6269 8.06403
127.02 57.1625 22.9544
214.575 98.1215 45.2826
3.3503 12.036 10.3933
53.1231 15.6824 4.59093
41.3026 19.7839 6.66467
19.9717 11.9069 6.19735
59.1588 31.1478 15.7177
62.0972 37.5671 20.5881
140.581 53.205 20.9344
2.66925 2.17724 1.47149
106.538 54.405 30.5222
21.7658 16.0934 12.0634
48.0735 18.7547 3.57339
45.6076 26.1169 11.4743
2.10362 2.75764 6.44196
52.5652 10.5588 2.90396
34.6253 12.0222 2.18862
36.8989 14.2046 7.89744
17.5631 11.7949 3.98479
18.3548 10.604 7.52473
66.8097 44.1873 20.3252
10.4611 10.087 9.29814
16.2618 5.12305 4.91604
17.2243 7.31286 3.2815
36.6312 25.2686 12.3766
31.0417 12.4842 1.98794
59.1644 30.9583 16.2023
32.8703 26.1724 12.9026
68.3355 43.7271 31.8391
121.198 56.0268 27.6374
10.232 13.7739 18.2806
82.3321 26.8905 9.01327
1.77362 1.55096 5.37765
100.138 49.198 18.7998
90.5601 48.8775 23.7216
59.1397 25.1293 12.738
25.8757 16.0688 8.00415
2.75157 3.15847 3.94636
116.28 53.696 26.0569
42.765 41.619 28.2074
4.40017 1.18382 1.08396
23.3504 11.1371 5.6223
9.88924 1.45211 0.258075
127.875 61.0579 36.0066
33.2454 12.4366 4.18209
9.36683 8.0008 3.4986
38.6664 26.0615 15.8973
32.5876 12.4065 5.68182
72.0868 48.6307 25.3098
3.62572 3.05817 1.24451
0.501145 1.87913 1.32897
31.5914 24.583 15.6011
0.740625 0.991317 1.32907
14.3154 16.4922 13.4038
77.1345 35.0344 15.8324
12.4964 14.3285 9.88843
55.5124 30.7463 23.2442
103.427 56.6599 29.7243
17.0785 6.53766 3.55414
32.322 31.1449 24.0621
10.3582 2.53627 1.35927
41.2671 20.2333 13.4345
10.1072 15.3646 19.2582
24.2098 6.78906 3.21485
215.155 110.911 50.6652
4.70423 10.2132 8.8435
2.38035 0.805481 1.69852
35.9561 29.0854 27.0807
117.387 89.283 50.7626
3.21573 1.39975 1.70908
2.48103 5.15083 4.30978
9.88917 5.47919 4.869
16.3185 22.3233 29.6968
79.2947 43.7484 22.4685
82.7865 74.8697 47.2399
9.43553 2.98506 0.192207
23.6749 14.3901 11.4656
68.4396 73.56 60.7789
107.321 53.2865 19.5463
12.1647 12.7573 14.2594
44.2572 23.4305 16.8452
34.2924 18.5953 12.7064
65.6326 54.5209 40.4415
80.378 58.6703 35.9355
18.887 8.87334 2.87194
8.4413 11.8683 12.609
52.2261 35.0802 14.4277
34.7973 26.7405 22.3667
40.0987 33.8701 30.1363
37.0343 22.0943 12.244
4.93529 12.6785 16.5423
2.3509 10.9763 24.2731
93.9628 34.7663 7.80764
44.5791 27.9483 14.1057
8.78561 12.0427 8.15975
11.183 4.41164 1.63619
42.5349 26.5413 13.8597
24.5574 23.5088 25.4073
7.86971 1.15313 0.503674
2.07003 6.5298 6.38826
6.65829 14.1639 12.5848
5.63206 0.644725 3.65112
15.171 4.7621 2.77963
14.0562 12.2976 12.3158
112.518 58.1352 33.576
11.5926 12.3082 14.1286
0.801464 3.81304 6.94473
25.7514 15.5918 3.6063
17.2863 6.41772 1.28384
41.096 46.924 34.5696
87.9794 76.9759 49.0658
14.8817 13.2844 9.27062
1.82951 3.94393 2.39968
24.9102 24.4999 21.2938
32.9675 26.9265 15.4032
22.274 25.313 29.3368
2.00631 7.33674 20.257
165.775 125.553 87.9532
21.3365 6.68174 3.34113
7.67969 11.7755 16.7934
17.1512 10.4253 3.64171
4.0135 2.05252 1.72117
5.58383 1.24847 0.227665
8.91665 5.45922 6.67187
6.34282 6.59258 4.15961
13.5745 12.1666 18.4274
73.9183 47.2097 29.9133
33.6296 22.9731 15.5364
50.9865 43.0562 39.3161
25.2678 8.88817 8.30272
31.3998 33.3679 26.0525
3.32119 2.92 5.10444
11.599 3.14925 1.36785
46.8992 57.4699 48.9754
24.9929 11.7165 2.5378
20.8553 16.8772 19.382
10.3399 1.89087 0.072236
30.1387 37.7532 34.7016
3.14166 12.5972 26.722
132.673 106.114 70.0604
2.50275 0.373722 1.58245
0.147946 1.8351 3.10801
6.00025 7.74021 10.8601
15.69 7.66846 5.91475
3.80524 0.183507 0.860645
23.9561 20.9062 12.8115
31.3605 25.9194 18.1557
7.78815 20.3952 25.8531
6.69419 9.57903 22.7278
49.8039 24.2481 7.73559
5.40285 6.67437 4.36163
0.10886 0.76595 1.7256
26.9041 27.8052 29.2188
55.8342 39.4597 33.3213
13.0639 6.00376 2.15688
0.0718319 1.36954 2.66786
24.4366 26.8844 33.6585
16.5997 5.87742 2.16026
2.49903 0.0875075 0.538262
2.81913 0.045057 0.223163
12.7306 9.56868 4.42623
5.51806 4.11462 6.25169
8.1417 13.5486 11.4349
26.047 42.2436 74.2041
107.545 67.6574 44.3985
3.79952 0.422253 0.174873
13.6513 26.4113 36.4619
9.76297 8.40776 11.6743
29.9212 25.6143 13.2773
19.1543 26.6285 39.7244
29.6876 14.9106 9.22291
7.4889 2.828 0.119726
13.6164 11.0139 6.77234
52.1025 50.3633 39.757
3.09018 15.2726 19.3854
0.130454 0.316208 2.51546
54.4444 97.6985 121.209
28.9068 10.4954 1.02457
25.5429 13.7683 4.58297
7.89396 15.3444 9.79166
31.4396 52.3316 80.5931
103.971 73.4351 55.0576
12.8955 4.10334 1.2778
2.19141 6.38801 9.98999
6.99934 6.35214 3.29693
0.00875192 3.31011 11.1083
6.79878 6.11902 6.60998
13.3874 6.40513 7.43277
43.593 62.2382 70.1726
44.6975 35.3003 29.0682
5.58349 10.5176 16.6068
12.7859 11.8709 18.4783
48.5628 52.0144 40.3066
37.0576 50.3568 45.4626
1.07784 5.80097 9.32228
18.7824 38.7397 50.8302
14.7739 23.7778 38.944
15.3436 7.02395 3.24002
20.5836 21.7351 18.3664
6.53072 1.48406 0.289831
13.8352 22.6855 23.4839
22.8744 36.2301 50.893
26.3081 23.212 32.9629
73.3174 86.9877 81.5021
7.37606 10.8671 14.7851
29.5805 38.8961 57.9198
15.1924 5.25556 8.83297
8.58533 9.76737 14.4065
35.9763 25.6616 22.0909
13.3889 10.1625 4.33339
16.5215 36.9639 53.3761
11.407 6.74683 2.23813
10.4862 7.48207 11.8588
20.8386 21.9466 26.3641
15.3062 16.7128 25.8558
17.6902 26.2507 30.7454
50.5456 53.5042 35.4123
5.96103 11.7399 15.5987
6.85194 23.9928 32.4006
7.95473 6.39677 13.6351
16.5492 8.4732 5.88888
2.4334 5.75079 8.41684
3.3847 6.47723 6.08386
4.35716 12.8007 21.6337
14.825 16.5681 11.2775
3.19583 3.64205 3.21553
0.437155 3.51552 8.24507
5.27528 7.30222 5.67171
2.71372 3.77896 6.84571
1.76429 0.352815 2.51842
36.247 41.4228 40.9558
3.99754 12.6216 21.3642
2.03933 2.5582 5.12601
3.94927 2.30471 0.38803
2.85793 3.24348 4.97427
7.70965 5.85932 8.16054
9.71305 13.9017 34.5066
72.1425 67.8698 57.5527
22.8956 28.0261 31.0653
24.6168 23.8336 16.9253
11.5011 30.8838 43.4692
13.5541 38.0856 49.3648
5.32548 24.6554 59.2262
33.5065 16.381 7.61697
17.0739 36.8007 66.6281
7.08225 2.68062 25.7654
14.2572 10.0291 1.39957
11.7202 8.80855 4.93858
10.8057 18.342 38.6854
19.7048 7.193 0.373584
20.6205 21.1896 16.0131
6.7002 14.8187 18.3391
0.927238 4.70377 17.0712
34.3165 54.1324 51.5635
4.81701 27.0403 65.6499
25.4393 11.3638 5.36994
27.4154 22.3363 13.2335
24.7808 57.6924 89.0576
12.1275 7.70363 11.5787
38.6736 46.2551 61.1066
22.1772 18.8213 8.70253
16.4751 31.9934 41.4102
1.8454 6.1127 23.6572
16.5371 21.0741 19.9769
18.4515 33.9835 64.1065
20.6788 12.7893 16.8325
16.495 23.4139 50.8977
33.5304 26.5548 17.9054
4.12821 3.40334 1.38504
14.1442 15.7251 8.19993
19.2355 40.3447 78.107
56.143 50.1127 43.6226
0.00222853 1.43947 6.11393
3.63632 1.49507 4.88604
3.9434 11.041 12.0518
2.8707 9.09104 26.875
26.4058 22.0316 18.473
42.8804 51.1719 52.1003
1.15329 4.00135 11.3473
0.672039 3.57678 12.8651
8.7285 7.38414 1.23943
28.6454 46.6383 67.3969
10.4172 5.92891 6.84282
5.85785 25.8735 63.9231
30.2244 50.221 77.8171
18.469 17.5205 16.4952
14.1349 17.2463 14.1778
7.18223 16.2391 29.0073
1.58187 11.6819 35.6104
11.3392 25.2355 53.1167
23.2235 17.2238 16.1484
16.0342 37.0058 80.2263
29.8573 13.9743 5.5245
2.40242 3.60657 7.33849
8.16049 6.35526 10.0976
23.2806 31.9741 44.0194
0.697097 9.65862 40.8698
4.64687 15.2489 56.7446
40.6411 20.4804 4.69835
15.5964 15.5809 3.78015
21.2307 29.9842 26.9864
4.97464 5.07123 8.6662
0.669481 1.49469 0.729388
15.8285 18.277 23.0127
0.415364 2.43091 14.0593
16.0274 14.3398 10.046
4.87652 7.84767 16.4548
6.24617 1.70651 8.48623
17.1399 15.7284 17.5743
7.22392 9.56056 32.4208
22.4201 13.101 9.98566
8.52684 6.89168 0.691342
23.4575 21.256 8.29516
23.2896 60.8091 82.3404
2.74739 14.6311 41.1672
14.9369 15.6117 18.9963
0.157218 3.73707 9.82791
3.06044 2.9237 7.52688
10.1395 20.742 44.4099
11.866 9.71882 12.4232
3.60259 3.80043 0.148431
7.73331 7.14697 8.882
4.99521 3.61674 2.68716
21.8948 44.5478 62.4758
7.91611 14.4438 42.199
23.4269 32.1381 25.9609
36.1063 63.69 98.0593
35.2288 53.6212 52.5914
11.4264 24.1842 55.2962
34.6238 53.3423 88.5025
24.3855 16.285 8.16447
1.65178 12.2869 18.282
6.36896 19.3996 40.6615
7.15078 1.37517 1.33777
3.18821 13.4691 32.6226
14.6707 15.3754 21.2679
4.3487 18.7409 54.4247
6.61885 1.9511 9.71878
17.5524 24.8314 47.4104
10.4115 11.6655 8.01195
2.21028 5.65443 15.9338
9.40749 8.48809 10.3018
1.96697 1.37521 0.872131
6.87442 12.1311 23.8767
6.63683 14.8904 29.9631
11.1823 24.3875 50.7808
24.192 55.9418 101.905
10.0762 0.692789 11.3087
30.6833 49.1031 45.4116
6.06843 13.0066 22.5727
10.7395 30.3947 64.9347
7.63075 8.31778 8.95473
10.735 14.9959 20.6372
4.76979 1.09213 0.119569
1.31428 6.26093 10.4572
3.09608 8.9825 14.255
3.19012 8.12322 33.6511
11.6013 7.14189 3.50687
0.0524991 2.66384 7.71287
0.657844 3.32172 7.63953
2.04662 8.99441 26.8963
20.8772 67.7321 138.713
16.3154 23.6457 35.5297
11.5362 4.46731 13.6119
23.8712 47.1591 55.9851
2.09153 5.4543 13.5278
12.7664 23.5141 46.395
6.73471 0.819767 2.29957
3.51196 9.15412 14.1403
15.0272 26.6255 42.9044
2.83171 1.80759 14.3067
9.77846 23.8212 40.1174
1.82204 3.75223 8.26257
1.58387 5.34931 17.0066
6.89227 8.7583 10.2439
0.0606408 5.70571 34.0128
10.9379 13.9122 13.5504
5.40691 13.766 15.7111
0.239697 2.35423 13.5315
14.7193 35.8871 50.9893
0.651652 3.66244 39.1583
41.0061 64.7908 79.8049
13.1077 25.328 49.1089
1.37055 2.10519 3.23382
2.46279 25.1971 72.9559
3.84669 4.8007 30.958
19.9098 8.4463 1.5447
17.4745 53.3322 76.2328
8.63718 40.0892 100.032
14.7163 18.7867 25.6117
5.98756 7.00653 2.81937
6.76308 19.3183 45.652
8.86993 4.03755 10.6565
10.7007 24.8854 55.4748
21.0888 18.3112 8.4754
2.46722 8.06627 10.9117
0.222406 3.66863 6.30552
3.55715 12.7974 32.3092
2.70746 2.50025 22.4803
3.18286 1.44639 3.73663
3.19905 7.28707 17.7348
7.57729 10.6308 20.254
18.3811 37.8446 71.4982
19.9863 41.1386 66.5581
5.32502 2.58836 5.65794
6.2515 3.29652 0.334854
2.22173 11.8751 29.8828
4.6704 12.8615 24.3082
2.88906 2.42881 0.352892
3.33427 6.66254 10.899
6.96543 4.36285 0.145205
13.7412 81.3342 227.051
25.7374 26.0901 12.344
0.343347 3.42547 27.2033
11.5626 17.8577 17.222
12.8293 33.8004 86.3288
10.5931 15.5017 10.3833
3.07487 4.12874 5.68476
5.08495 7.1234 24.5304
21.9393 43.4608 73.7151
7.28902 1.43462 2.384
1.0325 2.82516 21.0701
9.17068 27.9574 60.784
10.6566 28.0258 38.1181
0.168435 4.46233 14.4124
0.455419 6.50475 38.8231
1.68848 0.555198 28.6275
26.4113 32.8809 17.4312
2.19385 13.8976 18.5745
6.12649 35.0338 103.018
12.4511 2.99934 19.9837
12.513 15.9386 4.59014
7.0921 23.6767 39.4845
3.08236 18.5717 58.0092
8.13491 11.0747 25.0721
0.993099 0.0582334 12.4199
14.0667 17.3934 24.2946
13.6593 24.6545 57.5074
32.6394 84.6738 147.182
0.51324 7.57683 99.3589
60.2985 95.3347 105.229
1.55647 16.4691 92.9453
20.0685 33.5047 26.7689
1.29215 0.648681 0.726559
3.85468 28.0714 66.2609
6.53249 10.6844 8.76801
2.92823 6.05538 12.922
6.25721 14.3429 24.9051
5.06395 23.5704 91.8655
14.9698 13.8465 50.7029
20.93 61.9055 129.634
15.5449 41.873 74.5435
2.24041 4.90802 19.7736
6.92569 4.32471 1.11827
1.00873 0.942213 4.4148
4.68867 10.8128 30.995
9.64062 11.8961 8.4232
0.221174 8.22559 34.6237
6.54458 7.90529 7.24141
11.2667 30.5988 70.5721
9.24995 19.8591 106.285
45.123 99.5958 154.551
7.37406 1.02408 11.5554
4.44228 8.873 9.76021
0.0785857 0.20725 1.44839
8.20768 20.8632 47.7357
13.319 35.6959 86.5177
5.64044 5.7843 0.513397
2.43131 3.39918 6.45236
3.69798 8.99068 38.9102
16.7519 21.1645 21.8246
2.45838 3.04294 3.21129
3.77949 6.28013 18.5252
6.48267 18.1329 33.2954
5.97306 9.71033 9.75105
3.03283 47.0133 138.94
0.813384 24.8109 215.831
47.5117 26.8581 34.0753
27.8387 38.7724 4.18694
25.6365 73.7234 119.905
3.48091 3.41625 19.6496
17.4223 52.0447 92.0335
4.89345 8.49573 28.6659
6.22883 6.10914 8.60884
7.0156 14.0011 19.9702
0.235056 2.35417 11.9432
2.98159 9.03563 36.9196
8.74644 13.1544 18.4635
5.62862 11.0455 15.5116
2.52966 5.08775 14.6892
7.13184 15.3728 40.9278
10.1105 15.8008 28.558
4.49076 7.24513 8.45961
1.92071 3.75242 9.3983
1.89182 7.3256 26.0748
4.85954 6.74975 0.819133
10.0679 33.1089 80.6769
8.56521 9.24386 14.8243
3.36443 2.87037 11.1024
2.20229 5.41469 3.25606
4.65707 20.4699 80.7883
10.7361 20.545 20.8946
0.0374581 1.90777 28.5147
10.5107 39.253 52.5888
1.32709 7.39154 29.1586
2.06863 4.33843 3.59121
3.48154 19.3672 62.0747
12.5594 27.8765 87.6747
20.9132 29.6898 35.2902
4.0546 8.97134 10.3382
1.54167 20.2529 49.1317
2.14085 38.5234 193.145
22.9361 6.00137 22.3926
14.5587 28.9877 33.8998
2.62006 8.09787 29.8001
4.39778 0.521119 12.5018
8.01432 26.4878 57.8551
3.54187 5.34162 24.0831
2.05939 0.948188 12.0712
8.76461 34.8349 89.4883
4.75322 9.26778 55.6588
10.8727 24.5853 73.0238
19.9417 33.7624 28.4067
2.86632 4.58252 2.7985
2.7438 1.51541 2.56978
4.00128 13.8318 6.30658
6.36055 17.5036 24.184
1.53013 6.39617 15.7431
0.38354 1.87432 6.44439
2.31945 3.19777 3.41456
2.06368 32.2197 129.015
7.32775 2.11394 22.3246
13.6021 20.9968 11.6234
1.4185 5.87385 30.3182
5.3815 10.9276 25.1781
26.653 79.6571 139.182
3.02482 6.2961 68.4616
10.0004 5.43028 8.26373
4.34697 16.7044 20.7039
2.76691 6.48144 13.0902
2.38191 4.94245 4.66111
0.0554982 0.856852 1.38428
1.41257 5.29022 22.0888
7.59866 16.2975 19.4916
0.73729 2.06622 6.20584
3.5798 13.478 21.7405
0.0604182 4.07066 18.1813
1.03187 3.12277 2.32112
0.671673 3.08454 0.366898
6.0517 27.7565 58.0581
0.301021 15.3924 117.478
11.4874 12.5991 3.43908
1.51552 6.12447 62.6106
21.3739 51.5244 88.0582
5.74488 3.15417 5.01366
1.07603 2.46782 9.50077
1.80833 1.39965 5.92379
0.321119 2.54032 1.28244
4.79854 17.7539 32.2733
5.18427 27.5576 81.8832
0.846452 13.2628 92.2786
11.8888 4.1198 39.3755
5.57479 12.121 80.6893
30.8923 49.6123 26.383
2.49476 38.8514 107.466
3.13303 5.28922 12.934
2.29747 23.2308 135.635
8.73564 9.68231 39.0748
17.8317 40.812 63.9221
2.26382 0.393949 16.6328
15.8157 48.7276 82.421
3.33211 15.0908 80.4364
9.22758 19.5809 22.6657
0.308329 4.36083 34.404
3.57327 7.44958 24.0752
3.16204 5.07296 5.32516
0.776824 5.42654 28.3686
7.16135 5.88295 0.102867
0.898728 4.37091 28.6316
5.18339 13.5477 8.8138
2.29737 8.45853 21.8861
4.55102 33.0814 104.089
3.1282 0.473203 11.028
6.77339 10.337 17.3354
2.2981 6.47924 20.8615
0.522936 3.57721 55.3469
18.6109 29.8452 23.4197
0.15447 4.72991 19.9524
0.214532 2.54942 15.5252
3.5641 15.5142 30.128
0.853137 2.49106 24.4551
9.76315 22.9885 56.7788
5.40477 5.28638 2.80564
1.06039 0.449881 24.4995
9.25844 33.0958 54.7718
1.83006 7.82686 35.1933
1.18515 2.3778 45.8243
12.2706 17.3693 5.7818
2.70197 7.87693 5.91756
5.20094 39.551 106
1.52833 1.58137 20.4799
2.2652 0.847676 4.05125
0.537229 1.98647 12.8665
0.752685 1.40351 0.257034
1.82117 4.72764 3.07983
0.0695997 2.83298 32.2545
4.79988 16.103 13.9662
0.394743 7.6321 41.0522
7.9696 19.7145 12.3003
3.42561 35.3356 127.229
9.18152 8.08906 62.4505
12.9531 17.4328 5.63856
4.47957 29.6009 58.6118
0.0392977 4.44335 31.368
4.43538 1.17124 3.48941
3.47486 16.597 44.7767
2.68176 1.69215 17.878
2.12465 0.0569764 10.9623
3.07023 2.49396 9.95869
5.21761 4.40522 7.95668
5.41987 43.4192 137.088
5.96789 13.2199 22.7215
1.33121 9.81409 38.0191
1.92861 9.30572 34.4211
2.04767 4.28414 16.2816
5.89579 25.9287 40.9205
0.985893 9.31089 14.419
2.03472 26.0857 97.9221
8.17586 2.87079 3.44021
2.11612 33.8904 221.577
28.9724 38.8162 24.5533
1.04218 2.268 28.8822
7.61808 13.5882 2.21294
1.38981 19.4778 77.4299
3.67431 4.56685 3.64244
2.3389 5.13869 0.413052
3.45619 25.0673 58.3835
0.791604 2.11598 43.4409
5.33645 17.412 53.9322
2.49342 2.46393 6.86069
3.17007 3.28099 26.6277
5.30857 17.8818 11.3746
2.46049 4.45462 6.4
2.73858 22.2864 40.935
0.72918 5.94364 22.8598
2.5919 9.72197 56.855
5.81701 23.7942 64.7572
5.77205 0.476329 48.1075
8.43272 17.1854 25.6041
12.2852 34.1112 66.823
3.10211 1.47283 17.3418
1.96074 18.6758 60.8224
3.33256 21.3785 104.938
9.47031 11.3757 2.04071
5.66025 25.9233 89.2566
10.7786 15.0632 10.8285
0.511528 8.21995 31.6003
0.350645 0.773535 23.1382
7.31523 27.4775 73.9054
5.16765 5.39103 6.68827
0.607799 3.5577 9.59131
3.01666 11.1811 14.9641
0.709951 1.60689 35.7069
9.15431 27.0933 46.2166
4.97479 19.6234 61.7229
1.36998 1.41346 1.64214
0.940109 15.5465 84.1572
4.64873 4.98103 0.0690295
1.31609 1.16469 1.08648
0.442765 1.82415 3.51131
0.364217 1.26017 26.5372
4.12603 14.0725 33.0223
0.611226 0.612459 9.99887
6.56094 12.6036 10.2356
0.766711 1.92871 1.26021
6.7926 28.56 64.752
2.55076 1.71088 28.5029
3.69252 15.8484 97.2352
17.9771 36.6271 70.2171
4.38854 15.7425 50.5776
2.51597 9.03461 20.4725
0.663625 6.12662 51.1732
3.01244 5.15902 0.0526134
2.25062 6.10502 19.5713
2.96468 11.5906 42.7918
10.5017 25.2115 52.5048
2.18737 1.29759 1.26183
0.652274 9.2803 88.993
13.5512 37.7683 60.6576
3.79294 15.0141 40.071
6.72941 20.9492 27.2258
0.28055 12.6641 82.8631
3.01808 0.0964532 33.6557
8.34089 12.6958 11.1909
0.630291 7.20981 54.0777
4.31263 5.79554 50.7576
11.8796 30.8776 103.68
12.9514 22.5722 5.38568
1.59911 3.10924 2.98009
3.0037 32.3536 74.2851
1.39368 0.221731 0.0471145
0.407944 0.108473 13.0571
7.27634 37.9214 98.1516
6.36453 0.647797 23.9334
1.89618 3.60554 0.683276
3.15794 11.5116 34.9432
4.78063 24.3253 48.9725
0.0690876 12.831 100.001
11.1855 10.7761 42.6947
4.83046 6.74743 4.92121
1.84933 6.25001 33.7289
0.985612 2.61978 29.9072
6.00283 13.4981 39.0406
3.50939 11.8465 34.0753
2.31977 10.7596 46.2172
5.71551 11.8344 26.638
1.13511 1.62428 10.3432
1.59991 10.2487 42.4607
1.46323 0.762124 20.1958
5.56124 9.89626 2.7201
0.121965 4.84825 30.2151
2.50918 7.77717 29.1455
5.42032 22.9305 53.9342
3.536 3.77731 19.4447
2.19994 21.3829 122.858
8.34368 9.67263 26.913
3.76881 0.0177052 38.0963
5.36323 18.7265 29.1626
2.35913 7.05696 12.505
0.642013 2.39014 22.6804
3.37713 2.94675 7.33399
0.942116 1.60964 21.535
7.7614 37.9525 58.7396
0.581953 3.87795 25.2661
3.73318 2.49108 10.1393
1.19025 6.94126 29.1788
2.35414 2.42803 28.915
8.49104 17.4683 13.3314
0.223473 3.17058 16.9013
4.89981 26.6934 100.852
10.1186 18.334 18.1422
3.14047 10.6468 35.1155
1.24821 2.53492 7.28075
0.180948 1.39085 16.2377
2.82692 15.0605 33.1376
1.49001 1.25236 0.0126439
1.15536 15.0406 32.3281
0.910411 15.0762 152.405
9.82818 5.38276 126.75
25.673 71.0734 101.237
4.25497 5.8283 0.156453
1.50085 6.65167 11.1233
0.942803 5.23617 6.03271
3.98652 23.6285 47.0452
2.52913 6.48946 11.0779
0.0352304 13.0533 72.8173
5.06457 10.3396 21.3756
3.24262 16.51 33.8573
2.15637 20.1179 155.77
14.8956 23.3476 18.7478
0.977221 2.64374 6.21795
0.967712 3.76258 0.647183
0.77312 14.8529 53.9667
3.53981 2.6507 24.595
2.00959 4.23928 117.877
16.562 25.7892 2.09127
3.65644 28.5263 74.5315
8.10565 26.474 129.869
14.6664 44.3282 99.4494
4.02652 11.1354 34.8488
1.21488 5.6055 31.0793
2.77093 1.5691 8.19189
1.63271 11.5434 8.93384
0.0884223 2.38581 46.5731
6.0985 23.3557 26.7139
2.00407 34.7131 153.634
7.80227 5.29625 7.62417
0.462492 0.49988 14.5156
4.34476 20.3085 34.2467
1.77151 8.81138 39.2908
4.57761 13.5672 46.9727
4.99088 6.73027 11.2703
2.68279 8.75779 1.71093
1.70848 12.9265 34.9463
1.49734 6.3405 25.9581
0.442722 0.149756 7.39812
1.50458 8.11063 27.4539
2.48034 17.0814 50.7098
1.98546 4.94334 42.0293
3.1097 12.5995 17.5273
0.788382 3.41617 20.4353
2.35822 4.28686 5.35152
0.0937025 11.1628 51.932
4.0804 2.37565 69.3738
4.22228 6.32619 75.5482
13.1315 42.6297 54.862
2.94327 1.20533 41.8186
4.8376 8.81386 13.9237
4.06597 14.4103 48.2483
3.35088 8.21684 24.0688
2.26525 3.41518 15.4761
1.21275 10.3842 40.218
3.42724 12.519 31.4598
2.44864 1.66876 8.09363
1.34267 8.49943 24.737
1.65444 5.20738 35.2444
4.15695 16.4986 56.8115
4.14689 4.70845 3.43299
1.04746 16.1774 40.3653
1.14115 0.540138 7.26866
0.703978 7.83819 66.9293
8.23189 14.911 22.1318
1.10165 0.850324 5.95506
0.606851 1.42368 11.956
1.3335 2.91982 6.42413
0.589958 1.28152 9.42057
3.05416 10.6531 31.3372
1.31818 1.5243 31.8208
3.17919 4.72254 47.541
4.56985 25.5778 36.4229
0.611789 1.86751 5.16524
0.675041 4.05802 29.2953
1.36518 0.795353 52.1773
6.05403 6.86809 3.79727
2.80216 10.7041 5.61414
0.165786 5.06749 7.43142
0.227563 5.0904 42.2349
4.57181 17.3695 89.5407
8.44833 20.8948 21.2911
1.45243 0.0986411 15.5224
1.92151 10.1906 17.8333
0.325813 3.46576 32.0651
3.38009 3.68953 16.4877
2.35762 15.5318 21.4378
0.733562 2.05471 26.1332
1.54517 0.877951 4.25977
0.732618 7.36339 9.05217
0.488961 21.8747 210.156
15.2474 13.9138 26.564
8.46441 30.4017 29.6017
1.36322 1.9582 22.6989
3.46511 10.1692 83.4672
7.38747 40.5783 30.403
2.0832 28.3402 69.8806
2.73447 17.7505 87.6665
5.34607 11.5267 92.5974
7.76082 3.13547 22.0092
2.76278 26.7971 52.3247
1.67018 12.3599 80.3477
6.74319 9.33069 4.88645
1.95959 12.0852 38.6872
2.47251 7.31089 19.5523
2.77392 7.05213 64.9641
5.70204 48.5686 173.017
6.25417 5.26619 14.5461
2.84297 3.35777 8.40568
0.419527 1.49587 6.37893
0.555515 4.16236 44.5499
4.10989 9.78227 48.314
5.10431 7.08607 32.7766
5.11645 11.699 0.846493
0.546283 16.1551 115.974
7.68467 25.9175 36.9191
2.07554 5.0176 16.9924
1.51449 20.0468 50.3786
2.32286 4.69167 87.6812
5.76082 2.89528 18.312
3.73184 13.358 8.33878
0.487964 2.10091 17.4042
1.26311 3.78586 31.5047
1.85946 16.7722 35.674
2.64632 12.1686 65.5427
4.95616 2.39267 17.2904
0.779709 6.85856 31.4851
3.37121 15.5778 48.6903
5.47527 8.43584 38.1238
2.15346 19.1 51.8882
1.32231 4.50503 103.709
14.3998 33.6118 18.4013
0.130481 9.57078 56.445
3.47321 11.8235 99.2804
9.07986 16.2692 15.2183
1.15918 6.34046 45.4438
6.14653 14.1033 47.3366
4.83649 35.224 160.036
13.3143 12.4031 13.1372
1.64679 19.3377 58.7413
3.97863 19.7147 45.7956
4.12552 8.86359 22.4894
1.245 2.45886 36.671
4.81094 21.925 82.9539
4.25007 5.17224 2.67346
0.267768 1.17943 12.5584
1.24128 3.01417 4.04056
0.0148328 15.1178 225.901
17.538 35.5182 8.34534
1.57399 5.10699 13.9791
4.40556 49.9489 125.26
4.07342 1.93303 4.36152
0.0175566 4.10951 12.4905
0.377145 5.99931 37.6758
3.21538 1.10134 3.35229
0.456101 0.0553515 20.1061
1.61082 32.1172 128.388
6.62494 1.84303 17.8259
2.36352 4.02761 1.7202
0.0509067 0.817121 35.8937
2.81909 9.43339 1.23914
0.111867 10.0814 78.0398
5.41106 21.8408 31.2226
1.29487 8.08028 36.2953
4.3051 3.32458 15.4292
1.95125 27.8183 132.232
6.76786 16.8027 21.2179
2.08599 1.60539 37.383
4.01103 17.0532 23.5293
0.668902 5.07149 10.4018
0.0689872 9.33037 86.8376
4.56802 12.0882 32.253
2.96803 1.04985 14.5449
2.01595 8.05207 6.47719
1.30301 14.6681 91.8042
4.86916 4.55442 32.9527
4.03886 32.106 65.4101
4.32966 1.96356 7.84981
0.283913 9.34447 119.982
11.0202 22.6236 9.72091
2.15358 21.8144 52.2424
2.49748 1.09636 13.3556
0.994231 12.7592 10.632
0.928386 15.8106 71.9324
4.52402 1.83309 53.5536
7.36008 11.4556 11.1237
1.29502 11.6552 11.0609
0.874247 3.77032 6.19052
0.602701 8.54494 27.2595
0.789762 2.03465 41.0637
1.34607 11.4446 80.97
6.25986 21.8197 35.17
2.18915 4.08876 12.333
1.55536 15.2591 91.2936
5.13527 14.2448 11.9852
1.54766 5.27093 10.1925
0.846231 21.1895 143.599
7.30255 10.5309 3.49823
0.650136 9.28364 28.1201
1.35454 1.691 55.1389
4.02791 30.4228 17.6849
0.384776 27.8928 156.057
9.88719 0.588134 61.3367
6.44559 15.7754 15.8142
1.07823 12.3465 33.6917
3.60665 19.1639 72.7101
4.68454 5.21007 3.7911
0.624877 3.94355 7.72942
0.0431933 2.31109 47.0106
4.83436 25.2163 46.8404
2.1685 17.4018 102.645
5.72376 1.15421 52.2584
4.07301 10.407 0.820035
0.520718 6.92533 6.9582
0.457427 7.56957 30.1979
2.24823 0.68559 0.989009
0.70533 5.05244 37.9715
2.56069 11.3809 88.3769
5.69707 15.4763 5.59964
0.197419 11.5182 75.3851
6.61567 7.33659 8.12531
1.78634 15.5583 74.6089
4.1526 7.46823 3.74376
1.38585 8.37607 22.0001
1.07641 13.5896 62.0651
2.53768 1.02854 124.838
8.05143 16.4058 7.32313
1.15487 21.2658 21.3601
0.929453 1.89569 32.8346
4.18019 40.9499 73.1552
2.72953 1.57331 33.864
1.37583 0.981281 3.52622
0.199122 1.04788 3.19588
0.155508 9.04403 80.4422
3.57297 5.54204 71.1358
5.49885 11.0186 13.6339
1.43996 44.1169 159.601
9.32349 4.28057 97.868
10.162 62.678 129.069
4.74436 2.02576 8.18986
0.656501 0.729277 9.94125
0.190199 6.95896 49.545
4.63121 10.2728 14.6955
0.358376 1.13761 2.71235
0.0542409 0.473884 5.2508
0.406017 1.10943 9.55858
1.67276 5.26836 36.2477
3.56258 5.92474 2.42711
0.540031 4.27517 20.5599
0.736459 4.72555 30.1467
2.04402 5.28425 6.31347
0.592792 5.93275 43.4372
1.89899 4.3775 10.9768
0.748725 14.0363 46.0321
3.48792 5.50423 11.1502
1.16843 9.11942 17.3166
0.493377 8.92885 34.3177
2.70366 1.80374 60.1928
5.50803 24.204 89.3573
5.8057 12.0122 37.1467
2.02283 11.5126 13.1798
0.485878 8.94974 73.0689
6.02415 10.5381 19.0694
0.876597 6.48278 3.11728
0.311642 4.04266 29.5447
2.85583 1.84827 0.0819191
0.0625555 0.624183 27.4613
3.6042 18.997 85.255
4.78824 23.5526 80.4553
6.40118 19.6288 26.266
1.11648 0.680483 2.57122
0.089883 0.442986 3.00441
0.0201964 3.05075 6.14329
0.660039 4.89568 28.5138
2.57717 7.56632 62.4712
5.75857 11.1475 37.228
2.45943 8.666 72.296
5.14607 6.7561 33.4249
2.16522 19.6433 24.3774
1.55456 0.504283 0.750363
0.137539 12.175 55.5385
3.27732 1.6706 25.1289
3.21138 6.69349 15.0699
1.66369 9.58123 16.7049
2.02978 41.4331 176.64
8.07252 5.59414 67.9874
4.0263 6.89703 37.4686
3.1018 17.6149 20.8261
0.765446 3.07631 9.0343
0.857321 9.18129 80.9719
5.07162 11.4467 8.39518
0.759313 1.7772 29.7157
2.51664 7.14503 10.0458
0.159729 6.29065 100.267
6.11 32.251 55.4912
3.85837 5.43617 34.238
1.44873 8.61537 7.24541
0.516791 0.778055 14.5422
2.13214 6.42878 19.2639
0.729687 2.05984 72.7024
4.54312 11.8251 1.04651
0.0479262 4.71308 0.992566
0.0407968 1.84641 5.58067
0.790299 0.16842 2.7567
0.249959 1.51859 11.6479
1.0304 15.9191 29.292
1.19408 0.270948 13.2491
1.30199 9.13731 39.7604
1.30247 0.238337 22.9508
1.28056 2.82508 39.3467
2.36166 18.0066 18.4573
1.49449 2.53921 23.5535
1.89191 3.42923 31.1461
1.61177 22.4708 110.478
7.26869 6.59479 32.2799
3.11624 18.9326 20.0607
1.66515 8.26322 24.9949
1.53492 1.07426 19.0695
1.78352 3.69786 38.1161
3.2055 9.71089 11.456
0.426473 4.21472 9.89917
0.89704 0.949172 13.3941
0.617415 0.520987 25.7505
1.57468 9.72112 14.0117
1.50976 0.0461571 12.7077
1.06367 12.4888 71.5783
4.07892 20.8024 75.9702
3.62189 4.16699 5.12307
0.17967 2.89493 5.58951
0.968375 12.5349 68.3165
4.12384 12.8186 42.356
2.09969 4.91872 23.0439
2.06363 10.0373 20.8931
0.975922 4.98693 2.6624
0.0289572 6.75424 58.133
3.3578 6.17755 15.1131
0.633926 3.12708 2.25859
0.435849 8.3882 39.9194
2.3918 12.1258 10.4983
0.718051 8.64577 91.384
6.35571 5.34322 9.7054
1.29128 5.35389 22.8788
2.1624 14.2237 28.978
2.34242 11.5106 61.7831
4.04384 5.51172 2.2789
0.384546 3.46944 4.83957
0.118042 2.60917 2.73306
0.101696 2.71132 17.5829
1.60822 0.827856 13.1787
1.15775 4.86179 11.8138
0.231373 3.73413 33.8158
1.94525 2.43601 4.84124
0.0737974 2.41063 57.4092
2.90921 35.8015 87.6871
6.63781 9.69285 12.7513
1.03287 24.6656 101.607
6.66712 6.8388 109.958
8.90833 10.5748 35.8592
1.94603 25.6223 44.6549
3.38454 0.842891 15.8103
1.7627 9.33816 42.7467
2.26565 13.3546 80.5577
6.69727 19.3467 57.6928
3.36569 10.1842 16.9821
0.553414 2.36238 37.1761
1.70963 5.37393 8.73468
0.534565 2.16589 0.33779
0.180616 0.943307 3.29892
0.371914 0.698064 35.271
3.23125 7.41176 0.409121
0.0683815 17.3281 82.6431
4.87611 2.63915 11.5888
0.813355 0.468009 14.2632
1.28452 5.26392 14.575
1.53456 6.43218 65.5192
5.01446 51.6824 87.0294
5.46733 16.9742 101.986
5.48927 1.97436 3.79036
0.012123 6.07331 55.1968
4.03025 2.238 12.6863
0.585166 1.70637 1.2293
0.201043 0.874467 36.954
2.60941 26.1232 128.679
6.08976 0 0