# pn-170911/RbIIR-61-RbIIF-1280-1959.psd
# Power spectrum* (dif=0,1,2) (really just |FT|^2)
# NOTE: only the first half! (symmetric)
# weeks: 1280-1959
# 2503 clock-days, 35 excluded
# PSD: 1441
539.36 0.153494 0.0207611
28531.9 0.57125 0.0202687
118191 3.32378 0.020312
28567.5 1.06765 0.020694
68762.3 5.80714 0.0204166
9712.86 0.922946 0.0206139
9424.02 1.74137 0.020802
4974.61 0.954692 0.0212325
4363.68 1.30443 0.0203699
3052.11 0.881832 0.02089
2665.01 1.10127 0.021044
1957.42 0.922161 0.0204883
1947.42 1.07912 0.0209615
1470.53 0.924928 0.0207497
1284.56 1.03442 0.0203063
1142.56 0.981643 0.0216146
1036.37 1.10356 0.0207176
859.246 1.00297 0.0229024
880.355 1.0758 0.0223594
740.756 1.03736 0.0217764
697.433 1.1102 0.0228531
651.815 1.1372 0.0233415
565.086 1.10859 0.023904
549.431 1.14171 0.0233834
506.149 1.16139 0.0237822
457.527 1.16675 0.0227627
422.963 1.17491 0.0236184
426.425 1.2478 0.0243066
391.931 1.27327 0.0248525
366.059 1.29425 0.0257648
370.946 1.36284 0.0267768
350.56 1.35751 0.0257381
346.819 1.41874 0.027105
307.449 1.39689 0.0265793
303.974 1.47949 0.02863
303.207 1.54517 0.0293227
278.874 1.48969 0.0297496
263.375 1.54857 0.030772
274.906 1.65087 0.0334275
263.001 1.65139 0.031807
253.779 1.6505 0.0334633
239.711 1.73119 0.0348297
238.891 1.7324 0.0340403
232.676 1.85277 0.0352235
233.442 1.84965 0.0377499
218.267 1.86819 0.0394801
212.312 1.91774 0.0398049
213.206 2.00182 0.0414936
216.48 2.13293 0.0448409
204.653 2.11941 0.0437298
202.592 2.15557 0.0449054
202.822 2.23625 0.04799
203.404 2.35299 0.0504034
190.095 2.28151 0.051193
195.202 2.51445 0.0555766
196.235 2.58728 0.0577813
189.323 2.56706 0.0591458
182.359 2.53806 0.0603406
183.996 2.69669 0.063065
187.497 2.845 0.0676655
181.059 2.75845 0.0668429
172.334 2.77899 0.0696856
170.873 2.86163 0.0737008
169.736 3.00664 0.078738
173.688 3.13898 0.082993
167.686 3.18992 0.0842445
167.024 3.18598 0.0876992
162.048 3.23247 0.090277
169.244 3.43709 0.0954007
158.099 3.31355 0.0966843
158.177 3.4093 0.099575
153.123 3.51133 0.104989
150.143 3.43787 0.103745
155.05 3.62905 0.113247
148.021 3.54363 0.114324
156.203 3.92121 0.12555
151.253 3.94109 0.128336
153.054 4.04239 0.131146
150.976 4.03039 0.137699
145.491 4.0777 0.13958
144.352 4.1463 0.147266
148.687 4.37632 0.157167
143.284 4.38539 0.156044
140.491 4.41917 0.165575
144.037 4.58459 0.174374
143.639 4.68096 0.183091
142.095 4.77214 0.187544
138.326 4.73119 0.189849
137.181 4.78324 0.194604
140.215 5.05975 0.209179
140.414 5.11045 0.216745
136.058 5.13765 0.219562
133.03 5.09218 0.223398
135.6 5.35357 0.235925
130.456 5.19998 0.2387
132.687 5.38297 0.251208
130.993 5.52339 0.260844
129.744 5.53405 0.263525
131.136 5.77608 0.282842
125.705 5.56782 0.278953
131.895 5.93692 0.303411
124.917 5.72683 0.29277
128.291 5.9483 0.315376
129.469 6.18578 0.329583
130.832 6.30897 0.344081
123.695 6.10151 0.341649
124.546 6.27907 0.360574
120.522 6.2786 0.357332
118.559 6.33722 0.372608
122.64 6.6744 0.401208
124.025 6.68026 0.40428
122.14 6.83 0.419084
118.037 6.81093 0.420684
118.023 7.04125 0.44472
119.902 7.1093 0.456022
118.881 7.20742 0.478468
113.59 7.0706 0.470963
118.928 7.50952 0.506717
113.354 7.26875 0.501512
112.745 7.2249 0.49928
113.669 7.49744 0.532714
118.76 8.0891 0.5779
112.081 7.60276 0.552945
111.793 7.77237 0.5784
112.975 7.95673 0.6023
111.575 7.94247 0.611527
114.48 8.38834 0.652913
107.874 7.96284 0.626285
108.497 8.21218 0.650609
108.618 8.3488 0.670098
107.76 8.33449 0.684848
106.827 8.3837 0.701616
108.052 8.7032 0.737085
106.573 8.49977 0.725599
105.157 8.63073 0.749847
109.688 9.0974 0.804868
107.876 9.1768 0.815911
104.401 8.81306 0.797118
103.869 9.06088 0.830813
101.996 8.90312 0.835724
105.77 9.5524 0.897767
106.384 9.71721 0.927479
104.421 9.63753 0.941734
102.051 9.62055 0.951901
101.328 9.5488 0.947912
101.914 9.84805 0.992567
95.411 9.36144 0.95886
99.156 9.76677 1.01544
95.1027 9.52332 1.01095
101.067 10.2968 1.09808
96.4607 9.92531 1.07963
98.4163 10.2021 1.11398
96.1209 10.1872 1.12621
98.6665 10.5424 1.18834
90.1638 9.83809 1.11753
95.8486 10.4823 1.20915
94.4992 10.5159 1.22428
92.2362 10.4894 1.22826
94.5943 10.8492 1.28784
98.7087 11.4977 1.38386
96.4466 11.4329 1.40119
88.2752 10.5412 1.31003
91.8152 11.0105 1.37224
93.0094 11.236 1.41205
93.6334 11.5274 1.48096
91.5921 11.4773 1.49254
87.468 11.0839 1.45975
88.112 11.3261 1.50198
88.3387 11.4439 1.53293
89.3782 11.7654 1.60001
88.7267 11.9116 1.64523
89.9406 12.0791 1.67942
88.2783 11.9536 1.68184
90.8796 12.5829 1.78773
88.9538 12.2883 1.76692
85.7886 12.0638 1.75007
87.3707 12.3514 1.8119
85.9739 12.4022 1.85721
82.7886 12.0443 1.81536
84.3282 12.3106 1.86495
82.8562 12.1982 1.87259
85.8766 12.7421 1.95778
82.7156 12.6176 1.97856
84.3929 12.7621 2.01653
81.4051 12.5534 2.01764
84.3021 13.0725 2.12355
82.0462 13.027 2.12872
82.7452 13.0111 2.14993
80.1391 12.971 2.16763
83.3982 13.3575 2.24484
80.1439 13.1317 2.23543
82.09 13.6162 2.36361
81.1135 13.5644 2.35572
80.921 13.6478 2.38488
78.2857 13.5654 2.42535
78.3315 13.6304 2.43615
79.6314 13.9082 2.51758
77.1949 13.7974 2.52851
77.2022 14.0249 2.599
78.0132 14.092 2.63335
75.6559 13.9324 2.64424
75.0692 13.9602 2.65976
75.8144 14.1703 2.74747
73.8792 13.9067 2.69136
74.9515 14.3729 2.80996
75.2675 14.5503 2.87125
76.9025 15.0785 3.02697
73.8908 14.4243 2.8977
76.2322 15.3204 3.10319
73.3171 14.7738 3.04007
72.7334 14.7925 3.06796
71.2733 14.525 3.03431
73.1392 15.0962 3.19556
71.2752 14.7902 3.15711
70.1692 14.8543 3.2069
71.9292 15.3361 3.33165
69.2806 14.9386 3.27973
70.2948 15.2606 3.36447
70.4876 15.3998 3.43313
69.0458 15.2212 3.41322
67.5444 15.0209 3.40115
67.3608 15.189 3.51119
70.1343 15.796 3.65706
67.3638 15.357 3.59049
68.0388 15.6455 3.67056
68.652 15.8537 3.7581
65.365 15.2236 3.65683
65.9677 15.6482 3.76961
66.5333 15.7453 3.84468
66.2865 15.916 3.90069
65.1086 15.6904 3.85899
65.4208 15.9823 3.9844
67.2097 16.5329 4.15122
66.1872 16.3502 4.13506
63.8231 15.9938 4.08636
63.0008 16.0555 4.18607
63.7864 16.2169 4.21119
65.3164 16.6772 4.38673
63.9507 16.5142 4.34348
64.8693 17.012 4.55733
63.4897 16.8033 4.53268
61.2168 16.0712 4.33876
62.6864 16.7602 4.58551
60.0173 16.2442 4.49523
61.2983 16.5242 4.57853
62.8198 17.2608 4.83461
59.2765 16.4405 4.64599
59.7033 16.7162 4.77172
61.7853 17.3321 4.9347
59.1771 16.7433 4.8489
58.7915 16.9056 4.95037
61.5064 17.7348 5.23771
60.2875 17.4284 5.14516
60.926 17.7993 5.31732
59.7021 17.6418 5.30461
61.5461 18.1151 5.43262
59.57 17.7643 5.40059
59.3854 17.8944 5.48199
58.1793 17.6468 5.45473
57.5209 17.9686 5.64016
56.5439 17.287 5.41093
58.3936 18.2767 5.79695
58.3934 18.1383 5.77334
55.5358 17.5827 5.64974
55.1324 17.4873 5.62528
54.8883 17.6562 5.7466
55.8265 18.1205 5.9644
55.4004 18.0387 5.9526
55.3433 18.1628 6.07037
53.9761 17.6864 5.9347
54.0383 18.1481 6.19486
55.6446 18.3657 6.18004
53.0113 18.0326 6.24657
54.2582 18.3773 6.32027
54.4555 18.64 6.47073
53.3185 18.3385 6.4133
53.5697 18.6436 6.55823
52.8294 18.141 6.41742
51.5213 18.0759 6.47168
52.4035 18.5502 6.67753
51.8604 18.243 6.57131
51.5838 18.5472 6.75425
52.9154 18.9995 6.96854
50.6662 18.4473 6.83346
49.8063 18.1592 6.77529
51.3578 18.9539 7.1433
52.8578 19.1818 7.182
52.1991 19.5818 7.43481
52.427 19.2744 7.37018
48.1607 18.2333 7.06617
50.1657 18.8276 7.34393
50.891 19.3589 7.44752
48.1518 18.301 7.23344
47.7966 18.4828 7.25006
48.3667 18.9218 7.60226
46.9299 18.567 7.4123
48.894 19.2974 7.76997
49.2033 19.7584 8.03683
46.1342 18.5916 7.6108
46.2604 18.9114 7.86363
47.203 19.0792 7.88574
45.2248 18.6039 7.75848
46.1778 18.9791 7.91973
45.969 19.0601 8.04053
46.332 19.534 8.35097
46.9588 19.7062 8.3635
45.598 19.2533 8.26879
45.3041 19.3227 8.40862
46.1082 19.8273 8.62814
44.8933 19.4068 8.51407
45.8098 19.7641 8.72501
46.2413 20.1923 8.90189
44.4057 19.4749 8.70761
44.1148 19.6956 8.91389
44.1546 19.5469 8.78785
43.0549 19.2078 8.74729
42.2015 18.9907 8.75546
42.3634 19.1385 8.83369
43.2365 19.6175 9.03794
43.3872 19.8255 9.14631
41.2444 18.9485 8.8912
43.3387 20.2687 9.59391
43.3376 20.2312 9.58013
43.1917 20.3509 9.73309
41.2579 19.545 9.33076
40.2721 19.2981 9.33724
41.937 20.0639 9.73003
40.8936 19.9076 9.7838
42.5952 20.5907 10.106
41.14 19.8503 9.72585
41.3704 20.373 10.0909
39.5813 19.7113 9.93476
39.8212 19.4429 9.74909
40.0141 19.8378 10.0521
39.6196 19.7559 10.0554
40.3432 20.2525 10.3643
39.976 20.4348 10.5269
38.6156 19.5048 10.0427
40.0391 20.6902 10.7514
38.4348 19.9229 10.5617
39.7099 20.5336 10.7857
38.7361 20.0108 10.5753
38.2376 20.0219 10.6268
38.4862 20.3356 10.8221
37.3337 19.8929 10.8211
37.798 19.9886 10.8545
39.0032 21.0096 11.4493
37.2832 19.9401 10.827
37.3778 20.5526 11.4577
38.0441 20.7342 11.55
35.8998 19.4849 10.8442
37.4097 20.465 11.4375
37.9746 20.8512 11.629
38.2258 21.3694 12.0152
35.5989 19.809 11.2231
36.0454 20.2986 11.6185
36.2733 20.3755 11.5705
36.5925 21.0602 12.2498
35.6605 20.2737 11.7033
34.5309 19.9164 11.6724
35.7283 20.4951 11.8839
34.5102 20.1328 11.9279
35.1762 20.7031 12.367
35.2689 20.5193 12.2215
35.3293 21.0425 12.6741
35.1737 20.3663 12.0911
36.0838 21.443 12.8878
33.5382 20.2093 12.3555
33.3304 20.0214 12.2755
35.4982 21.4428 13.0306
34.0025 20.5796 12.6574
33.7684 20.9277 13.0658
33.0767 20.2831 12.7143
32.4932 19.9727 12.6046
34.2408 21.5093 13.6982
34.7245 21.447 13.5036
33.328 20.925 13.3249
32.6771 20.1611 12.7583
32.5838 20.6932 13.3116
32.1182 20.6392 13.4142
32.0137 20.4944 13.3422
31.5807 20.1608 13.1702
30.4713 19.5792 12.8226
33.5243 21.7768 14.2235
30.5492 20.0671 13.4204
31.5843 20.6562 13.7355
32.2356 21.2292 14.1998
32.6181 21.4075 14.3536
31.6303 20.9427 14.1074
31.1521 20.7389 14.0539
31.5718 21.3087 14.6427
31.4922 21.1359 14.4209
29.8689 20.1961 14.0282
30.7012 20.7661 14.2963
30.6077 20.7878 14.5613
31.2243 21.1425 14.6115
30.987 21.346 14.9945
29.7011 20.4594 14.3786
30.3535 21.0331 14.808
28.5343 20.0381 14.299
28.8314 20.2796 14.4928
29.2198 20.8227 15.0781
29.0697 20.5541 14.7162
28.8844 20.8701 15.2398
28.1294 20.1197 14.7625
29.4587 21.2519 15.4794
28.1763 20.5346 15.2182
29.312 21.2632 15.5748
28.9534 21.3662 15.8772
26.9308 19.8968 15.0065
27.3451 19.8597 14.753
28.4501 20.9658 15.5321
27.0426 20.4555 15.6169
27.5633 20.6285 15.6458
27.2113 20.4666 15.7052
27.7187 20.9412 15.9552
27.3433 20.739 16.0598
27.4441 20.6859 16.0485
27.4834 20.8087 15.9231
27.4406 21.3483 16.7167
27.0175 21.0712 16.742
27.9362 21.4479 16.9044
27.1833 20.8949 16.431
25.8796 19.8731 15.6488
26.452 20.8428 16.6188
25.926 20.2766 16.2725
27.1326 21.1051 16.8033
25.9827 20.7464 16.9517
27.661 21.7625 17.3664
25.3239 20.3517 16.5743
25.5276 20.526 16.7122
25.1481 20.4182 16.7612
25.2155 20.5462 16.9807
25.6647 20.9934 17.4395
25.1232 20.3183 16.7728
24.7071 20.6318 17.4702
25.2413 20.8196 17.5974
25.3876 20.7866 17.3823
24.7787 20.658 17.5703
25.2111 20.831 17.4662
24.2691 20.7362 17.9809
25.48 21.096 17.7761
23.8418 20.3247 17.6424
24.7914 21.085 18.1773
25.0744 21.4685 18.4743
23.8262 20.6282 18.1342
23.8328 20.5749 18.0753
23.639 20.601 18.2451
24.3702 21.014 18.4238
23.8426 20.9039 18.501
23.3406 20.2007 17.932
23.3781 20.6851 18.4671
23.5026 20.8461 18.6892
23.7115 21.0562 18.956
23.1604 20.4116 18.389
22.872 20.5659 18.7397
22.856 20.4467 18.6923
23.3477 20.9167 19.0249
23.051 20.7994 19.0573
22.8763 20.7069 18.9717
22.5636 20.6252 19.2685
22.971 20.7803 19.1711
22.7321 20.804 19.3954
22.4276 20.6346 19.165
22.1755 20.8663 19.9101
22.7471 20.9725 19.6174
21.8617 20.3889 19.3202
22.3902 21.3249 20.3852
21.6805 20.3119 19.6231
22.0082 20.6762 19.8444
22.0431 20.5657 19.6128
21.4242 20.6454 20.1346
21.998 20.6328 19.8013
21.1627 20.5214 20.3625
22.5111 21.1999 20.3628
21.1915 20.3329 19.9921
21.0687 20.3103 19.8737
21.41 20.9242 20.8578
21.5299 21.0166 20.7404
20.5063 20.0603 19.9789
20.3353 20.2158 20.437
21.2284 20.9747 21.109
21.0488 20.6069 20.6033
21.1324 21.2879 21.3802
20.7687 21.2474 22.0763
21.1949 20.8636 21.0164
19.8075 20.1786 20.9017
20.6968 20.7068 21.0142
20.6078 21.0478 21.8395
20.7971 20.9898 21.5695
20.2996 20.9149 21.7762
19.8627 20.4871 21.4274
19.9744 20.8826 22.2762
20.0777 20.3011 21.0449
20.0026 20.696 21.5106
19.1338 20.1116 21.5932
20.1601 20.9583 22.0153
19.2567 20.2206 21.7134
19.1655 20.0325 21.4102
19.4501 20.5133 21.7944
19.189 20.4087 22.0121
19.4839 20.6728 22.0862
17.9832 19.3877 21.4169
19.1915 20.3342 21.8525
18.3738 19.8423 21.7437
18.9974 20.7982 23.039
18.6106 19.8916 21.7633
18.1402 19.7922 22.1238
18.6632 20.0908 22.2086
18.7903 20.3429 22.2571
18.358 20.556 23.0408
18.3569 20.1154 22.6674
18.1757 20.2202 22.9173
18.6883 20.3237 22.7783
18.6451 20.9659 23.8881
18.5271 20.3539 22.7258
17.4227 19.9663 23.1158
18.2533 20.0408 22.6868
18.0065 20.4136 23.4836
17.6622 19.7914 22.5268
17.3018 19.9229 23.228
17.926 20.4115 23.5016
17.2377 19.7543 23.2677
18.372 21.1411 24.3909
17.1459 19.9132 23.6173
18.0407 20.4803 23.9096
17.2761 19.8301 23.2172
17.0991 19.792 23.1149
17.0483 20.2493 24.3803
17.2374 20.0328 23.9951
16.5965 19.2391 22.9805
16.6277 19.6116 23.6281
17.5364 20.6644 24.6252
16.8787 19.9457 24.0396
17.4026 20.813 25.0231
16.4481 19.6333 23.9549
17.0186 20.4744 25.0057
16.4068 19.8152 24.5116
16.761 19.98 24.4377
16.7842 20.639 25.5735
16.5701 19.7541 24.5594
16.8018 20.4085 24.851
15.7998 19.2591 24.0931
16.2189 19.8792 24.6982
16.238 19.9234 24.793
15.924 19.7281 24.8205
15.7681 19.622 24.8338
15.8637 19.5634 24.7662
15.818 19.5522 24.7239
15.8414 19.551 24.3301
15.5906 19.847 25.3365
15.1625 19.1423 24.6097
15.3232 19.3279 24.674
14.5847 18.5191 24.305
15.6075 19.8387 25.5201
15.0207 19.0049 24.5312
14.2908 18.3987 24.3069
14.7946 18.9013 24.7338
15.4425 19.9621 25.7794
15.222 19.7732 25.7357
14.9497 19.4408 25.5013
15.0371 19.6325 25.9226
15.1958 19.7786 26.3465
15.0665 19.5429 25.7131
14.9073 20.0122 27.3374
15.1731 19.7451 26.2268
14.8095 19.3931 25.7798
14.2549 18.9578 25.7401
14.734 19.4899 26.7142
15.0015 19.7838 26.6097
15.0121 19.5478 26.342
14.3546 19.3991 26.5988
14.6369 18.912 25.6017
14.296 19.4055 26.4588
14.3803 19.0638 26.478
14.1766 19.3277 27.0275
15.0154 19.5221 26.786
14.8288 20.2333 27.7944
14.8086 19.9515 27.8155
14.5805 19.9018 27.3995
14.212 19.6538 28.0511
14.5066 19.9236 27.7838
13.7694 18.8815 26.8738
13.8699 19.411 27.4981
13.4898 18.5829 26.7843
14.2258 19.3445 27.0796
14.2652 19.9236 28.072
14.1357 19.9084 28.4738
13.7462 19.3098 27.5804
13.7487 19.7006 28.5847
13.8457 19.4706 27.7957
13.1154 18.58 26.7891
13.1353 18.6628 27.151
13.0869 18.5806 26.6999
12.8227 18.4593 27.1665
13.184 19.0619 28.0141
13.2604 18.9951 27.7961
12.8617 18.7011 27.737
13.5065 19.6863 28.7623
12.6062 18.28 27.2552
13.0435 18.8765 27.8821
12.8326 18.717 27.9289
13.2859 19.4325 28.7435
12.8039 18.7811 28.1701
12.6969 18.5695 28.061
12.6842 18.6015 27.8139
12.5647 18.4021 27.8214
12.7275 18.8274 28.222
12.7148 18.9537 28.9479
12.5144 18.6022 28.6052
12.6822 18.4523 27.6451
12.4915 18.6971 28.4769
12.3946 18.5528 28.2948
12.2534 18.6437 29.0493
12.4064 18.7445 28.8902
12.3124 18.0811 27.1588
11.9115 18.3012 28.2615
12.1913 18.7726 28.7598
11.3751 17.6623 28.2706
11.8779 17.9184 28.1076
11.9619 18.409 28.6973
12.1237 18.8884 29.686
11.8312 18.277 29.1314
12.4189 19.156 29.8116
11.9596 18.5683 29.1386
11.8322 18.9234 30.3057
12.0619 18.7198 29.4335
11.6422 18.693 30.4865
11.6575 17.9526 28.6511
11.6392 18.2854 29.2296
11.5133 18.1143 29.3029
11.9862 19.0578 30.7821
11.4049 18.0038 29.1175
11.2312 17.8128 28.824
11.3285 18.0641 29.3231
11.6354 18.7008 29.8908
11.4211 18.6926 31.0045
11.6448 18.3398 29.4431
11.3751 18.8481 30.7845
10.7653 17.5854 29.8027
11.0056 17.4875 28.7729
10.9274 18.1979 30.7716
11.4604 18.6645 30.959
11.3849 18.3774 30.0756
11.0021 18.0434 29.9302
10.9957 18.2426 30.5942
11.1003 18.3138 30.3747
10.7299 17.7976 29.8043
10.7729 18.0345 30.8442
10.9533 18.3051 30.8097
10.8152 18.2612 31.1241
10.4212 17.2235 29.7475
10.8535 18.1738 30.9155
11.0056 18.7027 31.801
10.6267 18.0862 31.5882
11.0265 18.235 31.0394
10.7336 18.0433 31.1169
10.7552 17.9756 30.9112
10.9643 18.7888 32.0444
10.6848 18.239 31.485
10.3423 17.8205 31.4519
10.474 17.6302 30.4348
10.3467 17.7823 30.9954
10.2595 17.7867 31.4469
10.2528 17.6542 31.5247
10.8023 18.3415 31.3818
10.1107 17.8383 31.7751
10.3539 18.0016 31.5648
9.71061 17.1492 31.0422
10.2679 17.9011 31.8224
10.0839 17.3296 30.8697
10.129 17.6615 31.1763
9.86694 17.2103 30.6484
10.276 18.4243 32.7599
9.98409 17.7472 32.1045
9.98144 17.7446 32.2427
9.79155 17.4372 32.1659
10.2561 18.1069 32.6097
9.7531 17.2122 31.4375
9.88676 17.666 32.0943
9.83335 17.4512 31.814
9.67208 17.4477 32.1644
9.99113 17.6204 31.7133
9.83612 17.7404 32.1334
9.48421 17.2698 32.0581
9.49446 17.0177 31.4962
9.53359 17.1811 31.603
9.61691 17.7312 32.8154
9.26588 16.8048 31.4011
9.48406 17.6422 32.9167
9.38762 17.1854 32.3028
9.32575 16.992 31.6722
9.41828 17.2833 32.1369
8.93879 16.8108 32.4445
9.44424 17.4524 32.8833
9.18316 16.9293 32.4177
9.29377 17.1249 32.3042
9.24554 17.3113 33.1518
9.59332 17.5933 32.4996
9.10482 17.3904 33.6752
9.18161 17.04 32.9296
9.15424 16.8177 31.7174
9.00642 17.2295 33.6235
9.39872 17.7586 33.8076
9.01701 16.974 32.904
9.29553 17.6085 33.3853
8.76375 16.6402 32.0826
8.60848 16.5129 32.4809
8.75211 16.5753 32.1749
8.59969 16.5942 32.8246
8.92333 17.0221 32.9985
8.93729 17.5047 34.3729
8.74526 16.6375 33.0384
9.13906 17.657 34.5153
8.74273 16.8853 33.723
8.75474 16.689 32.8058
8.51618 16.5905 33.2898
8.71463 16.7963 33.2345
8.65942 16.9647 33.7854
8.81527 17.4367 34.9506
8.49093 16.3358 32.7434
8.54419 16.7327 33.4991
8.52183 16.7232 33.9618
8.54102 16.4102 32.6155
8.45781 16.8255 33.3873
8.10131 16.2475 33.9605
8.5856 16.5624 32.8457
8.50448 16.8678 33.7395
8.29377 16.7417 34.047
8.44728 16.6825 33.6118
8.26677 16.814 33.9464
7.97357 16.2478 34.1871
8.42595 16.9118 34.1161
7.85311 15.6141 32.7175
8.11111 16.4213 33.7409
7.94307 16.0961 34.4318
8.46938 16.8747 34.1519
7.96684 16.2641 33.75
7.81445 15.837 33.3558
7.86914 15.9112 33.3569
8.20424 16.8379 34.4522
7.77745 15.9646 33.2308
7.70873 15.8394 33.4943
7.90403 16.0151 33.4852
7.96252 16.4027 33.4882
7.38456 15.3588 32.6755
7.58267 15.7584 33.9332
7.9198 16.3357 33.9508
7.72188 16.4382 34.848
7.63938 15.9209 33.6951
7.67833 16.1298 34.2766
7.44944 15.4436 33.1854
7.41695 15.8732 34.5795
7.6108 15.8239 34.3174
7.88647 16.294 34.7945
7.87684 16.5047 34.6312
7.31114 15.4292 33.2793
7.39469 15.9425 34.1665
7.26723 15.4602 33.4874
7.20733 15.3151 33.583
7.33214 15.6228 34.553
7.43599 15.6889 33.7324
7.29127 15.5583 33.7467
7.15057 15.1949 33.0766
7.16933 15.7269 34.9212
7.41104 16.0308 35.7003
7.44595 15.7191 34.6438
7.58153 15.9978 34.203
7.25729 16.1788 35.6656
7.23915 15.6828 35.0196
7.34167 15.9765 35.2559
7.13366 15.3177 33.9841
6.9736 15.367 34.5073
7.2336 15.6339 34.3001
7.01681 15.3551 33.6141
6.82148 15.2187 34.5121
6.91095 15.1857 34.6547
7.02182 15.4448 34.9994
7.06855 15.4704 34.1669
6.94521 15.544 35.4546
6.93101 15.0481 34.5858
7.17583 15.4956 34.0832
6.76255 15.0954 33.5906
6.60806 14.8727 34.3431
6.76302 15.1462 34.9374
7.09749 15.9093 36.0372
7.00546 15.7638 36.0079
6.76793 14.9046 34.3945
6.85402 15.5116 36.32
7.07539 15.5925 35.5489
6.75866 15.2631 35.3927
6.85576 14.9626 34.366
6.77668 15.5749 35.3275
6.72568 14.9089 34.1006
6.51196 15.1112 35.7183
6.86725 15.4804 35.3088
6.4897 14.7785 34.1751
6.48276 15.169 36.8663
6.9542 15.4572 35.1962
6.65812 15.5536 37.0495
6.7602 15.3966 35.6307
6.46967 14.7509 34.5697
6.41981 14.7834 34.5654
6.47142 15.0494 35.5036
6.38637 14.8343 35.3629
6.41417 14.7378 35.036
6.35616 14.5391 34.5574
6.43345 14.9479 34.8323
6.1303 14.3232 34.5118
6.36662 15.208 35.9893
6.15299 14.1862 34.1583
6.10213 14.4888 35.5516
6.46267 14.5838 34.0548
6.2753 14.9504 35.6756
6.23542 14.743 35.9514
6.40477 14.852 35.3761
6.20724 14.881 36.6917
6.53234 15.2563 36.2741
6.17614 14.695 35.5141
6.09257 14.5154 36.0117
6.41334 15.0894 36.3215
6.21705 14.7434 35.8665
6.12321 14.7349 36.8917
6.42356 15.1013 36.9416
6.21107 14.6345 36.0047
6.1779 14.4583 35.0038
6.1933 15.1606 36.8785
6.22729 15.0276 36.5676
6.0904 14.8525 37.2769
6.24508 14.9839 37.0968
6.25524 15.0716 37.5925
6.3585 15.3848 37.9493
6.29939 15.2261 37.7158
6.12216 14.7532 37.0574
6.37234 15.7013 38.8056
6.27684 15.4099 38.9269
6.35364 15.0501 36.9794
6.16719 15.2746 38.2882
6.25143 15.2612 38.466
6.3148 15.3037 37.5804
6.07476 15.1342 38.4613
6.20273 15.2478 37.6353
5.80973 14.2883 36.432
5.86177 14.6961 38.0869
6.08127 14.8717 37.8981
6.16789 15.5297 38.9986
6.13762 15.3095 38.7778
5.96676 14.8061 37.7527
5.86696 14.254 35.8822
5.59314 14.3232 37.6965
5.93564 14.6764 37.5919
5.94119 14.9393 38.3309
5.88315 14.6321 38.2021
6.19775 15.7797 40.2545
6.13975 15.1054 38.5096
5.98887 15.2153 38.8374
5.81603 14.5752 37.7054
5.87772 14.7491 37.9096
5.76206 14.648 38.1587
5.8949 15.0396 39.3464
6.05302 15.2441 39.153
5.80244 14.7662 38.2644
5.854 15.1329 40.0728
5.95741 15.1594 39.2735
5.94641 15.5133 41.7973
6.19591 15.5643 39.9894
5.87903 15.0879 39.7041
5.80789 15.0151 40.1904
6.02071 15.0481 37.9571
5.46961 14.4656 39.0143
5.68599 14.7975 39.6613
5.74729 14.4206 37.7866
5.69933 15.1589 39.8227
5.70523 14.7417 38.8902
5.50271 14.3065 38.1129
5.49543 14.3855 38.5547
5.61337 14.6188 38.3573
5.44396 14.4043 38.8048
5.44208 14.0713 37.2405
5.35418 14.4045 39.3465
5.41653 13.9811 37.6946
5.38843 14.0508 38.7795
5.65616 14.8645 39.4023
5.38748 14.0688 38.596
5.54003 14.4571 38.9861
5.50562 14.4832 38.7892
5.47718 14.6823 39.0862
5.20883 13.6014 37.3759
5.35054 14.2646 38.6647
5.40323 14.583 39.2775
5.23501 13.5826 37.1988
5.3355 14.3717 38.9441
5.30429 14.3104 39.2995
5.24534 13.5292 37.0715
5.17743 13.9699 38.5933
5.23788 13.765 38.2673
5.35539 14.1645 38.3367
5.25986 14.0648 38.3082
5.17564 13.8697 38.7609
5.20136 13.8725 37.5491
4.99487 13.6128 38.1389
5.13133 13.8772 38.309
5.18576 13.8877 37.9424
5.10396 14.1285 39.3426
5.0893 13.6838 38.3897
5.1654 14.2882 39.9207
5.18553 14.0355 39.1334
5.08284 13.735 38.2519
4.94044 13.306 37.3937
5.01608 13.7357 38.2416
4.95939 13.5901 37.7577
4.89476 13.5452 37.7047
4.69344 12.8327 37.2698
5.03977 13.6792 37.852
4.90237 13.4682 37.7399
4.83633 13.4279 38.4553
4.92827 13.6699 39.9122
5.31332 14.7419 40.8139
4.97463 13.5379 38.1781
4.96135 13.7979 38.5722
4.91217 14.0055 39.0263
4.85114 13.4331 39.009
4.94149 13.9608 40.3862
4.99015 13.666 39.0775
4.94968 13.7411 38.9959
4.88067 13.4761 37.7759
4.82205 13.7243 39.4655
4.96281 13.9609 39.7836
4.77364 13.0593 37.6635
4.76505 13.8911 40.2587
4.82066 13.2626 37.5261
4.68259 13.5745 39.3116
4.74528 13.2244 38.7788
4.80683 13.735 40.3413
4.94055 13.7297 39.188
4.75507 13.5402 39.7961
4.90103 13.8973 39.472
4.65443 13.2054 39.1288
4.73431 13.2423 38.7079
4.75195 13.5543 38.8897
4.5824 13.1609 39.1422
4.71977 13.5075 39.97
4.79829 13.5205 38.6847
4.56568 13.5978 41.0346
4.71074 13.2551 39.6514
4.73388 13.197 38.9199
4.7129 13.356 37.8957
4.38612 12.937 38.6228
4.53876 12.9014 37.9581
4.5105 13.116 39.1972
4.66954 13.4706 38.8519
4.54931 13.4551 40.1944
4.68256 13.6496 40.0828
4.55842 12.9322 38.8591
4.59319 13.4067 39.7122
4.47264 12.7906 38.4892
4.47467 12.9107 38.3793
4.43371 12.9433 38.4152
4.38356 12.5673 37.3498
4.36964 12.852 38.5318
4.50986 13.3624 39.1934
4.31581 12.8431 39.7564
4.59572 13.2302 39.6347
4.46491 12.8103 37.4275
4.28082 12.7614 38.7312
4.31406 12.675 38.417
4.40696 12.7272 38.5606
4.3537 12.8363 39.21
4.46996 12.9528 38.6648
4.35014 12.5088 37.7069
4.39266 13.1453 39.237
4.30669 13.1435 41.2051
4.59003 13.3631 40.6019
4.35293 12.6174 38.7534
4.39873 12.6094 38.3599
4.29007 13.0578 40.2938
4.41646 13.0369 40.2404
4.34011 12.8284 39.8436
4.37505 12.5071 37.9219
4.17482 12.6456 39.6829
4.39769 12.8263 38.1814
4.1061 12.3103 37.7812
4.1295 12.7867 39.6645
4.31504 12.9851 39.9051
4.26076 12.6261 38.7802
4.21724 12.7628 39.042
4.13556 12.4976 39.4955
4.32746 12.8125 39.4159
4.2923 12.7832 39.2396
4.13187 12.2737 37.6644
4.06199 12.9229 41.2801
4.37478 13.013 40.6762
4.28188 12.539 39.0186
4.19809 12.9227 40.5794
4.30631 13.078 40.3021
4.19206 12.4986 39.3748
4.13079 12.4423 39.2292
4.20774 12.9372 40.4499
4.19637 12.5813 39.4506
4.18706 12.9697 39.7645
4.04228 12.1836 38.5596
4.03162 12.6493 40.2208
4.09207 12.4018 39.6045
4.07837 12.3165 39.0584
4.05092 12.3015 38.2197
3.95107 12.4273 39.1495
3.99054 12.2819 38.7894
3.97374 12.1906 38.59
3.935 12.016 38.0855
3.93955 12.4693 40.0311
4.04254 12.3735 39.5194
4.02996 12.3585 39.5335
4.00674 12.189 38.8045
3.99037 12.5738 39.9544
3.98586 12.3887 39.7299
3.9552 12.0365 38.6017
3.98587 12.4383 38.7549
3.90522 12.4829 40.569
3.99869 12.3364 39.9472
3.96002 12.2752 39.2514
3.8831 12.165 40.0758
3.99476 12.221 39.2173
3.94498 12.0644 39.0731
3.91711 12.5522 40.5393
3.99917 12.478 39.8408
3.89498 12.1246 38.703
3.87441 12.2385 39.2131
3.80968 12.034 38.8257
3.80935 11.7081 37.4038
3.67118 11.726 38.8312
3.92061 12.5025 39.3942
3.76236 12.1024 39.1178
3.73729 11.8991 39.5007
3.89062 12.1627 39.1091
3.73911 12.0674 39.4851
3.77008 11.8741 38.6118
3.70533 11.7473 38.2192
3.6068 11.2644 37.1192
3.63213 11.7602 38.098
3.60527 11.3724 37.3189
3.58067 11.4045 36.787
3.45493 11.1557 37.4194
3.57388 11.511 38.3098
3.65942 11.3568 37.0952
3.58147 11.6436 38.2084
3.55795 11.3644 37.2334
3.51573 11.1254 37.6822
3.54986 11.2857 37.9144
3.5975 11.2354 37.304
3.55632 11.2903 37.0103
3.46402 11.2961 37.2527
3.49327 11.3575 38.3917
3.54235 11.4154 38.3419
3.58498 11.2233 37.1619
3.47788 11.4057 38.2167
3.62281 11.6205 37.6923
3.50574 11.3697 37.5424
3.46085 11.4208 37.7293
3.37686 11.0696 38.3812
3.58397 11.4897 37.6884
3.48355 11.2659 37.3852
3.41336 11.008 37.4241
3.42388 11.3183 39.1632
3.55338 11.0287 36.2504
3.41394 11.2181 36.7203
3.35811 11.0461 37.2318
3.39508 11.3244 37.9918
3.42145 11.3545 38.2287
3.45886 11.3303 38.4746
3.47254 11.2908 38.4461
3.48925 11.2949 37.0078
3.31631 10.8872 37.1296
3.36137 10.8257 36.8701
3.42696 11.6569 38.8099
3.37889 10.7027 36.5018
3.29711 10.9938 37.8879
3.40763 11.3315 38.5815
3.43976 11.2433 39.4237
3.54297 11.3788 36.8469
3.24593 10.844 38.1743
3.48954 11.8271 40.023
3.48196 11.2337 37.9177
3.38324 11.3959 39.1709
3.43239 10.9966 37.7814
3.38762 11.3143 38.3929
3.35767 11.1348 37.7817
3.28812 10.9285 37.4302
3.24909 10.8235 37.6583
3.29342 11.1506 38.1792
3.31044 11.1603 38.6418
3.37725 11.3226 38.6129
3.30528 10.7809 37.6933
3.35334 11.314 38.4258
3.33913 11.1385 37.4073
3.22913 11.0315 38.7217
3.33721 11.1014 39.0931
3.39366 11.0556 36.8615
3.13065 10.4913 36.1625
3.11743 10.6607 37.8724
3.24457 10.7655 36.9994
3.15662 10.4624 37.3533
3.26567 11.1453 38.0905
3.27409 10.9759 38.3136
3.26226 10.9059 37.5402
3.19031 10.4876 36.8697
3.21799 10.8712 37.8424
3.24652 10.9957 38.1768
3.24704 11.0993 39.4666
3.33157 11.1735 38.4432
3.21214 10.6029 37.1547
3.1936 10.9682 36.791
3.02426 10.517 38.2547
3.18412 10.7691 38.3572
3.25004 10.7707 36.8959
3.13004 10.6863 37.8139
3.2126 11.062 38.9285
3.19107 10.4341 36.6886
3.17528 10.6011 36.9202
3.10627 10.9269 38.0081
3.17074 10.8055 38.6011
3.16915 10.6832 37.4584
3.08276 10.6976 39.0032
3.18954 10.7234 37.092
3.06831 10.5731 38.4311
3.222 10.6853 36.7941
3.01859 10.4865 38.077
3.16574 10.7439 38.2349
3.14626 10.862 37.6047
3.09059 10.7343 36.7023
2.97743 10.6874 38.5797
3.12348 10.7553 39.1709
3.15609 10.3989 37.4371
3.1567 11.0102 37.8236
3.05118 10.7378 37.8022
3.05313 10.7603 38.7969
3.08313 10.4563 37.0775
3.02163 10.5865 37.2026
2.97925 10.573 39.4594
3.16481 10.9641 39.3671
3.12031 10.7626 38.4167
3.06363 10.6592 38.9082
3.16221 10.968 38.4692
3.06728 10.5066 38.0822
3.05094 10.6761 38.5467
3.08671 10.7043 38.8295
3.08498 10.3562 38.1036
3.14301 10.6889 37.756
3.06882 10.8844 38.951
3.21001 11.1949 39.6434
3.13065 11.2609 41.9945
3.41661 11.5048 41.4784
3.24158 11.1612 39.6686
3.21214 11.124 41.7857
3.29239 11.5847 41.6955
3.3684 10.8672 38.8893
3.10927 10.8371 38.2259
3.10812 11.0471 39.7382
3.08509 10.9227 39.9351
3.15868 10.6722 38.9015
3.04688 10.5634 38.4787
3.05525 10.8907 39.9286
3.07131 10.5682 38.3377
3.03482 10.5158 37.7222
2.90125 10.3807 38.9
3.05037 10.3724 37.6122
2.9464 10.7892 39.6307
3.05178 10.5067 38.2507
2.97381 10.3743 37.1811
2.93277 10.4252 38.2444
3.01725 11.139 39.2759
2.96335 10.4663 38.4302
2.98122 10.8677 39.1251
2.93765 10.3128 38.8725
2.99951 10.4045 37.6812
2.90785 10.4755 38.7504
2.94023 10.5612 38.8337
2.95517 10.2366 38.2085
2.96832 10.5704 38.314
2.92097 10.5438 39.345
2.97522 10.4287 37.5877
2.87014 10.1617 37.7092
2.86881 10.2161 38.0414
2.91494 10.4477 38.2343
2.88258 10.2943 37.8102
2.88455 10.4475 38.0483
2.85756 9.91717 37.3128
2.84217 10.3924 38.6699
2.93889 10.4104 38.5555
2.90161 10.4208 38.7584
2.90448 10.343 38.0818
2.87429 10.2025 38.2308
2.8797 10.4844 38.4967
2.86547 10.3101 37.9844
2.87662 10.3401 37.0644
2.73278 9.87712 37.8222
2.86028 10.2798 39.0158
2.90397 10.3263 37.7406
2.83751 10.1165 37.2613
2.74742 9.76075 37.8778
2.88077 10.339 38.406
2.88645 10.2669 37.6656
2.80046 10.4461 38.7488
2.88557 10.5306 38.5368
2.8191 10.2442 38.6333
2.8473 10.0252 37.016
2.73712 10.1186 39.1373
2.89077 10.215 37.1885
2.73267 9.70831 36.5793
2.72135 10.0501 38.151
2.84515 10.4595 38.6536
2.8442 10.2778 39.38
2.88969 10.2769 38.1194
2.76847 10.0142 37.5961
2.77783 10.3943 38.3993
2.79146 9.70001 36.5558
2.73672 10.1465 37.8983
2.80228 10.4623 38.4144
2.75556 9.71215 37.2524
2.70058 10.1066 38.3362
2.8072 10.2102 38.222
2.75176 10.0268 36.9166
2.70291 10.1079 39.6709
2.87006 9.96194 37.3417
2.76188 10.2985 38.7431
2.8003 10.0513 37.641
2.76583 10.0971 38.2073
2.73537 9.79309 37.3596
2.73917 10.2279 38.4134
2.76602 9.74668 36.2921
2.65999 10.059 39.0212
2.8202 10.073 38.2955
2.74598 10.0602 38.3228
2.77871 9.95077 36.8764
2.66436 9.78544 36.648
2.67453 10.2881 38.8963
2.75226 9.80746 37.2537
2.6615 9.82987 37.467
2.68048 10.029 38.0709
2.71334 9.88422 37.707
2.69689 10.0669 38.9579
2.80624 10.2634 38.7075
2.71221 9.60348 38.7736
2.80381 10.196 37.091
2.63946 9.98878 37.6802
2.66209 10.0402 38.8533
2.79375 10.3131 37.7223
2.61319 9.4069 37.166
2.69017 9.86181 36.664
2.59963 9.8584 38.5221
2.73451 9.60952 37.5233
2.7048 10.3903 38.9191
2.73823 10.1687 39.4057
2.79146 9.87298 38.2632
2.77443 10.36 37.7608
2.67611 9.81605 39.2457
2.77652 10.0425 38.6084
2.72583 9.92514 37.3696
2.63034 9.6941 37.3687
2.70059 10.027 37.9896
2.67185 10.014 38.1632
2.64661 9.48057 36.9714
2.60787 9.93986 39.0318
2.75163 9.85127 36.8559
2.5699 10.081 40.1404
2.78954 10.0036 38.4223
2.71282 9.99568 37.1199
2.58258 9.49324 36.4593
2.55068 9.39439 37.6537
2.67475 10.1376 38.7434
2.65566 9.70835 38.3277
2.68865 10.0566 37.095
2.55727 9.61687 37.8287
2.64944 9.95868 38.0108
2.63827 9.84263 38.0221
2.63447 10.252 39.0449
2.67095 9.79254 37.7166
2.60881 9.75031 37.4552
2.56265 9.48498 37.4866
2.5699 9.58318 36.9003
2.52222 9.64838 37.1704
2.5726 9.77681 39.0345
2.7064 9.81903 37.0846
2.54295 9.57677 37.5873
2.61414 9.62607 38.6935
2.67596 10.3117 38.1836
2.61338 9.55556 37.8979
2.57717 9.5527 37.7978
2.63015 9.62094 37.613
2.59171 9.56852 36.5768
2.54715 9.69096 36.3417
2.48908 9.44347 38.1287
2.61855 9.50374 36.8246
2.5541 9.25215 36.8516
2.54989 9.65753 37.7434
2.61338 9.84644 38.0401
2.61768 9.60617 35.9691
2.49846 10.126 39.8143
2.69965 9.55069 35.8898
2.47257 9.81151 37.8845
2.5645 9.34177 36.554
2.51542 9.63767 37.9896
2.60182 9.54874 38.4172
2.63226 9.76784 38.8024
2.69018 10.1141 38.6356
2.6136 9.65929 37.3048
2.53671 10.0299 39.3649
2.64963 9.59052 37.3191
2.53385 9.60118 37.0437
2.50948 9.63212 39.1755
2.66444 10.0933 38.01
2.53519 9.44698 37.5894
2.53323 9.68141 38.2706
2.60176 9.91647 37.6105
2.50043 9.44357 37.7001
2.54747 9.82584 38.8316
2.62459 9.5334 36.4569
2.43846 9.43331 36.8211
2.49371 9.24419 37.3352
2.51346 9.4105 36.366
2.44879 9.49888 36.7551
2.47765 9.58009 37.7272
2.50875 9.47947 37.5799
2.52432 9.52058 37.6638
2.51948 9.62752 38.525
2.57669 9.65545 37.2127
2.50666 9.39515 37.9362
2.5399 9.5828 38.5946
2.57739 9.61854 38.2773
2.57056 9.72296 37.7045
2.53951 9.30259 36.771
2.48038 9.79087 37.6106
2.49979 9.43033 37.2708
2.49939 9.45966 38.1096
2.54864 9.50976 38.0716
2.55806 9.88918 38.6689
2.5793 9.50732 38.0919
2.56181 9.69057 36.04
2.39735 9.07431 35.3703
2.37421 9.3332 37.077
2.44033 9.34683 36.6669
2.42456 8.85536 35.9982
2.3962 9.157 38.0233
2.54648 9.5907 36.9224
2.48203 9.70472 37.3088
2.47014 9.38816 37.1223
2.45605 9.41158 38.9738
2.58176 9.72953 37.2296
2.46308 9.42424 37.2933
2.51916 9.4314 36.5438
2.45029 9.71278 38.7366
2.52795 9.50783 37.5025
2.48963 9.277 37.5103
2.47743 9.77983 39.0531
2.61184 9.45463 36.5651
2.41231 9.68846 37.4412
2.48436 9.83848 40.0939
2.63955 9.54533 37.1941
2.52084 9.50527 36.3269
2.37778 9.16477 38.2567
2.57939 9.42309 38.1196
2.50075 9.41497 35.8832
2.39883 9.14995 37.8555
2.48615 9.70889 37.3091
2.50754 9.37315 37.378
2.46217 9.3264 36.4493
2.39487 9.26897 37.0032
2.45766 9.74755 39.2195
2.60151 9.63151 37.1895
2.46347 9.47933 37.8095
2.46682 9.20492 37.9562
2.50851 9.4992 35.9371
2.36086 9.31205 36.9075
2.43842 9.33857 37.5646
2.46445 9.40107 36.9348
2.42844 9.43521 38.1291
2.49746 9.585 39.4276
2.54458 9.5154 37.4393
2.44795 9.41087 36.8865
2.42189 9.46746 39.1577
2.57714 9.87157 38.5769
2.52925 9.5664 36.6243
2.38734 9.46869 37.2706
2.4383 9.53733 37.5354
2.43876 9.24013 37.4494
2.45593 9.36907 37.3926
2.45801 9.31226 37.1909
2.4297 9.48926 36.5744
2.37973 9.44726 38.0933
2.47208 9.38043 37.6204
2.44783 9.30214 36.8443
2.40883 9.12874 37.0544
2.41555 9.78848 38.5696
2.50094 9.42428 37.2827
2.41844 9.44432 38.7044
2.51454 9.59366 37.6507
2.46588 9.41716 37.3114
2.43297 9.32046 37.2897
2.43023 9.41023 38.965
2.54924 9.60635 38.1743
2.49546 9.48048 36.7039
2.41644 9.38894 37.6721
2.45031 9.79181 39.0608
2.52514 9.55817 38.6803
2.55462 9.48842 37.7881
2.47689 9.51299 37.5087
2.44068 9.56238 37.4007
2.44237 9.30018 37.7673
2.46745 9.28636 36.3164
2.36459 9.7169 38.73
2.50545 9.82197 38.7912
2.51448 9.36976 38.1574
2.47276 9.34669 39.846
2.59248 10.5496 38.1407
2.47765 9.6348 38.4579
2.47836 9.52124 38.4202
2.49607 9.32792 39.4218
2.57869 9.71515 37.4011
2.4222 9.27256 38.4554
2.47812 9.74072 37.8248
2.45269 9.68467 38.0173
2.48223 9.49713 37.1552
2.42494 9.35553 36.7294
2.4356 9.28947 37.518
2.42098 9.67067 37.1724
2.43106 9.18893 38.8309
2.51036 9.54861 38.3426
2.50023 9.70358 39.5293
2.52903 9.56229 37.1334
2.40364 9.79857 39.2949
2.57519 9.45474 38.5838
2.50978 9.68823 37.7592
2.43048 9.58148 38.5119
2.46273 9.7683 39.345
2.53803 9.81305 39.2075
2.55068 9.49761 39.3709
2.56452 9.80031 38.5332
2.53411 10.0857 40.9174
2.65316 10.1526 41.1185
2.67894 10.6405 42.1012
2.72164 10.0659 39.3633
2.57923 0 0