# pn-170911/RbII-17-USN3-1280-1959.psd
# Power spectrum* (dif=0,1,2) (really just |FT|^2)
# NOTE: only the first half! (symmetric)
# weeks: 1280-1959
# 146 clock-days, 59 excluded
# PSD: 1441
11979.3 0.415923 0.0136331
304236 4.04262 0.00757377
1.87169e+06 40.6587 0.00698734
231849 7.78155 0.00671636
158099 10.8134 0.00733097
67086.7 6.46219 0.00828971
63451.1 8.165 0.00999379
44135.3 7.7286 0.00891669
32342.2 7.23156 0.0100707
26472.6 7.9581 0.0108825
19545.8 7.28949 0.00948286
19806.2 8.88444 0.0129061
14026.8 7.41784 0.011337
11067.9 6.43554 0.0150167
9409.76 7.17153 0.0140489
10025.5 8.6344 0.0172665
7274.95 7.22562 0.0146352
6873.49 7.37417 0.0167453
5161.3 6.3638 0.0195071
4943.75 6.42091 0.0179012
4113.03 6.85688 0.0196948
4135.6 6.72085 0.0186835
4648.44 8.04702 0.0248466
3739.81 6.98381 0.0230814
2969 6.1386 0.0216741
2984.25 7.15942 0.0245179
3395.39 8.33245 0.0332905
2543.67 6.91993 0.0305013
2488.25 7.97044 0.0353294
2646.36 7.82761 0.0366708
2104.04 6.89755 0.0352552
2184.85 7.20379 0.0429433
2512.17 9.39475 0.0557053
1982.33 7.68263 0.0475123
1698.22 7.43544 0.0479476
1620.15 7.17248 0.0475722
1423.78 7.01717 0.0501946
1404.36 7.71334 0.049396
1495.2 9.07655 0.0655495
1245.95 7.02841 0.0553565
1133.89 6.58602 0.0568543
1346.31 8.29142 0.0694343
1186.19 8.19232 0.075183
926.664 6.68951 0.0670439
1082.39 7.90968 0.0811868
917.254 7.31736 0.0826133
941.66 7.01368 0.0732221
950.365 8.05533 0.0955297
993.581 8.60146 0.103748
755.104 6.97851 0.0874968
683.808 6.29742 0.0820127
768.64 6.79192 0.0923085
662.017 7.30863 0.0997573
637.95 6.87344 0.0951505
631.353 7.41316 0.108414
605.072 6.32081 0.0989315
634.865 6.93997 0.110585
616.462 7.08233 0.12204
644.527 8.30113 0.139567
542.734 7.1053 0.12969
488.004 7.01532 0.116803
584.876 7.8184 0.133999
472.488 6.03144 0.111022
474.675 7.0427 0.144264
568.161 8.78226 0.186867
461.341 7.60226 0.160157
469.13 7.52702 0.15906
539.505 9.15975 0.203576
391.636 7.09167 0.165387
415.917 6.95565 0.159535
423.223 7.36273 0.167469
443.071 8.46175 0.216743
350.91 7.14484 0.189405
367.101 7.14024 0.191181
342.228 7.61031 0.21222
408.921 8.82184 0.241965
323.632 7.51156 0.220142
401.493 7.96435 0.246196
296.025 7.02751 0.213008
322.518 7.9949 0.244394
308.79 7.04717 0.223429
298.551 7.79727 0.241294
304.199 8.30655 0.276213
301.407 7.71749 0.27102
310.721 8.39464 0.285681
339.022 8.1767 0.283766
314.401 8.69209 0.311378
251.964 8.04361 0.296278
277.709 8.34667 0.304314
249.234 7.09538 0.277943
228.363 7.3285 0.288577
234.464 7.3016 0.28829
282.566 9.15828 0.369394
223.393 6.85287 0.281831
215.04 7.12506 0.319768
269.448 8.96312 0.385251
220.873 7.62465 0.336372
220.769 7.85211 0.340076
220.733 8.14674 0.385869
228.635 7.45401 0.3519
201.572 7.15109 0.349198
189.696 7.4547 0.381707
183.472 6.72262 0.343072
193.26 7.73444 0.380091
202.974 8.13005 0.414047
165.086 7.52181 0.409185
158.919 7.18488 0.396668
181.315 7.93628 0.444658
174.982 7.76103 0.436096
160.36 6.71483 0.395145
184.348 8.56685 0.498525
184.783 8.37258 0.503102
159.892 6.7887 0.399317
153.989 7.213 0.438468
172.086 7.76683 0.501156
158.532 7.28422 0.477644
164.892 8.34691 0.569591
143.134 7.64299 0.497833
154.156 8.08587 0.542896
132.155 7.08751 0.491762
137.983 7.10279 0.490153
162.601 8.5983 0.600688
129.153 7.47452 0.541027
141.469 7.72404 0.58077
151.478 8.52509 0.601677
128.376 7.29298 0.53739
128.458 7.29491 0.537818
117.982 6.84077 0.529196
128.981 7.49394 0.597114
109.146 7.37084 0.560353
110.013 7.03587 0.560031
120.402 7.6612 0.624292
91.7514 6.96299 0.59663
93.734 5.57566 0.451729
118.769 7.74315 0.66149
109.951 7.92312 0.676624
106.641 7.03108 0.621678
120.458 8.53407 0.748807
101.686 7.81029 0.693936
109.067 7.76521 0.70503
97.2061 6.74603 0.624514
81.3078 6.32747 0.588597
100.791 7.68826 0.754015
91.2658 6.4638 0.619809
97.7087 7.67782 0.76865
107.698 8.36405 0.802903
96.2509 8.05236 0.811572
97.9506 7.64424 0.803846
90.5195 6.72603 0.70267
91.0326 7.1807 0.753389
90.7382 7.61213 0.809797
97.6579 7.61248 0.839217
96.093 8.66206 0.943922
92.6404 8.61461 0.936041
90.6563 8.58285 1.02836
92.1593 8.09974 0.88044
90.0499 7.96503 0.89524
84.9588 7.67211 0.907034
77.4136 7.64679 0.903737
62.7926 5.84948 0.698488
70.6511 7.53973 0.910868
79.2831 7.24507 0.885241
79.8111 7.18829 0.901549
72.3698 7.33094 0.959336
74.3051 6.72329 0.846636
72.1179 7.33432 0.993133
100.982 10.5799 1.3165
80.5894 7.89836 1.08623
70.2231 6.36499 0.844772
80.0056 7.88698 1.04715
67.7298 7.12124 0.97787
68.3014 7.84251 1.10606
61.2713 6.94978 0.953394
80.4724 8.75704 1.22761
68.8228 7.74979 1.10286
65.7238 7.30842 1.06587
68.0289 7.76058 1.15637
61.533 7.25893 1.07169
75.1262 9.07318 1.34766
50.3887 6.61993 1.03528
61.4258 7.88961 1.12856
60.2985 8.06406 1.31094
53.6357 6.35598 0.991072
60.8055 8.3844 1.34464
61.3476 7.44613 1.20508
68.046 7.49957 1.24888
51.5833 7.01127 1.10161
48.368 7.10372 1.19105
53.7156 6.71404 1.13543
50.2677 6.68186 1.0955
55.7913 7.22309 1.23943
67.7212 9.08834 1.54781
54.9857 7.64549 1.33276
58.9817 8.21338 1.41109
56.7089 7.21778 1.29574
60.3108 7.77115 1.37733
41.0213 5.34838 0.979995
53.9115 7.21547 1.34397
47.2725 6.90823 1.2481
56.1586 8.46768 1.54214
56.8046 7.90404 1.42577
55.7078 8.20061 1.56035
53.6703 8.00236 1.56563
57.3523 9.74446 1.90944
54.8732 8.32848 1.6045
45.9125 7.33019 1.43021
46.9885 7.67339 1.54583
44.7858 6.9636 1.397
45.3383 8.02949 1.65707
48.3591 7.7779 1.59497
49.2852 7.72177 1.52197
48.5421 8.08615 1.62713
47.0418 8.23847 1.67591
51.1445 8.72767 1.84775
49.2872 8.24467 1.73351
43.5115 7.73409 1.69451
43.3747 7.32459 1.6325
44.1371 7.30471 1.54923
39.8597 7.37654 1.66831
47.3623 8.02433 1.81755
36.7214 6.14167 1.4449
43.9021 7.06535 1.58224
38.8514 6.86019 1.61967
41.7358 7.92902 1.79272
38.3365 7.26818 1.81467
41.5092 7.93767 1.78022
38.6769 7.25576 1.72293
41.9042 8.33331 2.0053
38.5799 7.40025 1.79567
44.4547 8.34375 2.06005
38.0999 7.30753 1.78733
38.9051 7.45856 1.8999
38.9423 8.07668 2.0638
36.1376 7.49187 1.89652
28.0962 6.08238 1.60305
34.3592 6.77393 1.71342
36.6722 7.26467 1.87865
34.5937 6.76102 1.76664
35.7601 7.78603 2.0492
36.9483 7.87828 2.13333
33.0333 7.30297 1.94904
35.3657 7.7985 2.16294
34.5702 7.13186 1.89167
34.7514 7.97625 2.13518
35.4043 7.8808 2.19454
33.7376 7.26705 1.96882
39.6091 9.04529 2.58922
35.1653 8.42618 2.24788
36.0277 8.49706 2.4821
32.4638 7.55292 2.12251
32.0078 7.78009 2.17444
36.1836 8.21534 2.49589
37.3837 9.21254 2.74193
34.679 8.70603 2.63809
33.2143 7.84295 2.39614
32.5058 7.2282 2.18376
28.5366 6.79911 2.10161
34.4563 7.72583 2.42639
37.4319 8.46027 2.57586
27.0983 7.12733 2.22314
36.3832 9.36663 2.90868
26.1958 6.25028 1.97892
31.0016 7.37501 2.366
32.3182 8.36331 2.6338
32.8878 8.81476 2.78362
25.7437 7.28951 2.37789
28.2873 6.66506 2.17267
27.4716 6.903 2.29437
33.656 8.53319 2.86777
25.7083 7.04036 2.43249
28.2857 7.8094 2.62638
35.3523 9.24677 3.16541
26.1278 6.30711 2.13473
24.8127 6.87719 2.52341
26.5679 7.33662 2.59771
25.0333 6.31762 2.09185
23.8849 7.16949 2.52432
27.0142 8.0898 3.00634
28.6942 8.42915 2.8873
27.51 8.03497 2.8953
24.0425 6.2875 2.29914
26.8672 7.94215 2.85325
24.2396 6.93356 2.50359
26.6187 7.79658 3.07256
25.5518 8.11841 3.12559
28.0902 7.64338 2.9242
26.0925 7.60851 2.87159
25.282 7.69042 2.99273
24.831 7.46 2.81959
26.2581 8.28721 3.18281
28.6227 9.42266 3.50656
21.8439 7.42155 2.97501
28.3741 8.28893 3.23451
21.4547 6.95627 2.72387
24.816 7.27418 2.91184
27.085 7.30794 2.7773
32.1029 11.6918 4.72602
21.0906 6.66929 2.91027
26.2084 7.84437 3.08596
22.2267 7.28535 3.00699
21.4827 6.98706 2.90866
21.1408 6.92521 2.92052
26.5948 7.94375 3.33533
23.5137 8.77928 3.72286
22.2081 7.92131 3.27268
22.7027 7.25696 3.11194
24.5275 8.26325 3.51708
23.1795 7.66507 3.17809
23.5975 8.27814 3.47974
24.841 8.23811 3.5429
20.3028 7.21352 3.2758
21.5063 7.64942 3.42348
21.19 6.45708 2.85954
23.6837 8.08611 3.68041
24.1205 8.21322 3.56822
19.7656 7.12532 3.24996
24.7876 8.62738 3.93616
19.6934 7.31623 3.42264
19.7266 6.82459 3.30957
23.2958 8.10054 3.69509
18.1749 6.85144 3.22666
20.2624 7.00346 3.29784
20.9814 7.97375 3.8811
18.3306 6.94593 3.57486
23.0827 8.56645 3.84995
18.9446 7.8232 3.90966
23.6962 8.40449 4.03166
22.3829 9.13478 4.58461
20.2052 7.97746 3.94541
20.8345 8.31603 4.00751
21.126 8.44031 4.25915
21.6804 8.98546 4.50568
18.5719 7.52528 3.53979
18.1525 7.84022 4.06476
20.2212 8.30484 4.21082
20.4498 8.55622 4.4897
18.0984 7.0974 3.58019
18.8965 7.53227 3.73611
19.6749 7.89403 4.21344
21.3532 8.9781 4.65805
18.304 7.71245 4.16624
16.4099 7.13107 3.86351
19.2857 9.02373 4.81173
21.2681 9.06374 4.78482
16.6158 6.5931 3.53446
16.7752 6.66436 3.50431
17.4104 7.21403 3.96778
18.366 7.63101 4.17428
17.2999 8.48214 4.72311
16.2887 6.67719 3.58583
16.7671 7.51294 4.28118
18.4152 7.50099 4.16758
17.0279 7.68126 4.24108
18.9324 8.58799 4.95223
15.8895 6.79421 4.00398
18.3216 8.84242 5.06211
16.2559 7.98204 4.57843
17.496 7.33242 4.19454
16.4929 7.06664 3.96426
15.9752 7.61593 4.56987
18.2647 8.30913 4.67021
15.134 7.80546 4.69073
14.0077 6.18228 3.68567
16.1896 7.22758 4.41787
15.7173 7.48049 4.49027
14.9783 7.29917 4.36291
15.3448 7.2717 4.42361
16.5758 7.82629 4.69271
14.7062 7.74813 4.86545
16.2969 8.10238 5.03451
13.1036 6.45751 4.0161
16.7464 8.34713 5.33125
16.6213 8.28287 5.15446
15.8295 7.92616 4.91189
15.1046 7.36489 4.77996
18.1155 9.21172 5.70286
16.8424 8.49068 5.19709
15.7063 7.43736 4.65802
15.9991 7.5127 4.69928
15.7419 7.65573 5.00135
18.5035 9.51051 6.20713
15.9174 7.68644 4.86521
14.3215 7.67432 5.12991
14.3255 7.73675 4.99807
12.7172 7.24596 4.97938
15.5696 8.39761 5.79854
16.8504 8.20202 4.95963
12.6415 6.74493 4.83661
14.8018 7.60039 5.03639
13.0138 7.33611 4.95157
11.7517 6.65666 4.96729
15.3716 8.3102 5.88842
13.1988 6.91847 4.70356
14.5149 8.39659 5.68934
14.9565 9.16377 6.5666
13.5405 7.98109 5.50208
12.6171 7.87588 5.79976
16.5619 9.60246 6.61473
14.7777 7.96725 5.45255
11.891 7.04041 5.15378
10.5565 6.9675 5.30513
12.011 7.17638 5.46937
15.7329 8.65845 6.17804
16.4319 8.99479 6.13632
14.3511 8.73514 6.51026
11.1058 7.38905 5.70155
15.0087 8.53411 5.938
12.745 6.21023 4.36471
11.9911 7.66769 5.76837
13.4067 7.76849 5.82824
13.6187 7.43663 5.45024
12.7355 7.19616 5.32109
12.7841 9.01607 6.8042
12.992 7.69071 5.88225
12.3365 7.53369 5.81819
12.0019 8.01203 6.16732
12.8034 7.47763 5.8504
12.0714 7.32431 5.72212
11.8976 6.38575 4.91969
12.31 7.62957 5.85491
13.3329 8.2343 6.48891
12.0164 7.84567 6.27889
13.163 7.54322 6.51374
12.2161 7.52683 5.59941
11.1797 7.23426 5.72237
11.2811 6.44722 5.11484
11.7483 8.17282 6.30147
12.2518 7.73749 6.07133
9.87836 7.36472 6.17676
11.0886 7.23775 5.91205
12.0829 7.43895 6.1411
10.5635 6.11179 4.94329
13.1798 8.859 7.12095
13.2488 9.5089 7.45299
10.8242 8.44831 7.26962
13.2122 8.85533 7.56782
11.5386 7.40804 6.53977
10.5082 6.44304 5.01424
9.42567 6.0376 5.32706
14.2144 10.526 9.2454
11.3143 6.94984 5.37554
11.4262 8.32703 7.75072
11.8092 8.44224 6.92118
12.7671 8.88994 7.44991
11.7964 7.95184 7.11468
10.4897 8.01384 6.98133
13.2675 9.00518 7.95781
10.5464 7.47729 6.62561
11.7154 8.1647 7.52873
10.9502 7.11498 6.32491
11.474 8.59381 7.08952
9.76988 7.77576 7.09585
12.3565 9.54267 8.88158
11.2001 7.44862 6.63395
12.1219 8.8558 7.84586
11.7993 8.97318 8.39176
12.4635 8.7334 8.66222
12.298 8.9714 7.47966
11.6515 8.12468 7.28653
10.1927 7.48496 7.22296
12.6018 10.5155 9.78003
10.7348 6.81651 6.26399
9.80097 7.04918 6.39973
9.29921 6.69012 6.59949
10.1463 7.30876 6.97381
9.67135 6.79783 6.25355
9.69779 7.32701 7.10333
9.19417 7.57748 7.46746
12.6448 9.63893 8.55961
10.5334 7.93143 7.47331
8.95388 6.81717 6.96501
9.79567 7.80299 7.92364
12.8227 9.51922 9.02158
10.3852 8.87292 8.3339
8.8968 7.2694 7.30424
11.3501 7.87873 7.77387
11.036 7.87481 7.5372
11.0372 8.93581 8.75904
10.1743 8.40668 8.90372
9.44302 7.09616 7.31876
8.62962 7.60455 7.57524
9.69368 7.97966 7.79553
10.3156 8.02061 8.30813
10.0033 8.33569 8.41666
10.2055 7.53679 8.03963
10.1398 8.5491 8.17733
9.35306 7.53475 7.8511
9.69441 8.07706 8.33601
10.0794 8.4409 7.80744
8.06981 6.84713 7.75268
10.6926 9.10053 8.95527
9.15652 7.3985 7.6337
8.56344 6.77656 7.19318
8.72091 8.0758 8.64687
9.74049 8.62203 8.82733
9.19243 6.8903 6.79734
7.34589 6.1756 6.80194
9.40627 8.65707 9.47874
8.4894 7.39892 7.95958
8.75652 7.40325 7.91113
9.04117 7.59865 8.98542
9.85509 8.43699 8.63369
10.4942 8.53718 8.79151
9.41656 9.36292 10.6378
9.75262 7.48958 9.04469
9.5225 7.66682 8.10805
8.27469 7.12195 8.40512
9.0619 7.74388 7.81318
7.30356 7.58687 9.18252
10.6731 8.65005 8.76918
8.50261 8.05275 9.08822
8.71761 8.46675 9.49927
10.466 8.68118 9.83196
8.17539 8.38707 9.85246
9.99448 8.71797 9.72696
9.66998 9.05721 10.2392
8.70162 8.44165 10.0116
9.95771 8.18742 9.49992
9.20124 8.68549 9.82714
8.50774 7.08728 8.17622
7.89735 8.0914 8.96386
9.04173 8.3704 9.42099
8.86734 8.89106 10.6899
7.93018 7.0997 8.17725
8.07231 8.07358 9.58242
7.51196 7.26299 8.8678
8.90337 8.54977 9.95159
7.31811 6.96294 8.25442
8.12867 8.05079 9.51992
9.45556 9.09322 10.057
6.76976 6.85349 8.61896
8.52076 8.62526 10.4619
9.29864 9.89713 11.5672
8.9942 8.56302 10.5962
6.96405 6.56039 8.09949
8.84819 8.58563 10.3493
7.85177 7.72342 10.3244
8.54441 7.77931 9.49868
7.82526 7.69363 9.64931
7.36343 6.88464 8.38235
8.22611 7.77214 9.52499
7.78321 7.32065 9.2134
9.67459 9.59788 11.312
7.42744 6.93457 8.65194
7.13515 6.43409 8.68335
8.15045 7.72382 9.25979
8.01209 8.72529 10.924
9.85845 10.3749 12.3671
8.17774 8.63043 10.2842
7.03009 7.25193 9.72661
7.80364 8.01972 10.5307
8.46041 8.05988 10.0888
7.39109 7.05785 8.90904
8.92939 9.69729 13.2583
7.67935 8.54537 10.5356
7.93954 7.74994 10.2454
8.03107 8.41972 11.4514
7.70924 8.11376 10.5616
9.78719 10.6462 13.2797
7.43229 7.31307 10.1074
8.08406 7.38069 9.14534
7.24558 7.10444 9.10014
8.08835 8.0103 10.1271
6.99592 8.80443 12.5808
7.46573 8.19147 10.7023
6.81748 7.16658 10.403
10.3071 10.6979 13.9579
7.69334 8.62121 11.6971
8.47986 8.70865 10.9372
7.71565 10.0914 13.3715
8.78446 10.4565 14.4164
8.03249 8.76294 12.3177
8.30904 9.67079 13.7296
7.84832 9.08689 12.2318
6.9141 8.52136 12.7639
7.90717 8.32354 10.446
8.24973 10.3521 14.3223
8.34953 9.12275 12.3307
8.32687 8.65119 11.9057
6.23159 7.64235 11.6714
8.27826 9.4589 13.0899
7.03774 7.89837 10.9866
7.86162 9.13182 13.1429
8.19605 8.22503 11.3678
8.48849 9.3921 12.7998
7.43816 8.92388 12.5001
7.15118 7.49027 10.3389
6.41179 7.27036 11.1532
6.81889 7.48592 11.8081
8.07154 9.63276 13.3007
7.01611 8.04865 11.9275
6.58846 8.52813 11.9906
5.44321 6.47847 10.0195
7.50472 8.2717 11.575
7.10974 8.61967 12.702
8.38893 9.76356 13.9046
6.94304 8.10019 12.3427
8.0087 8.78007 12.0092
5.41588 6.52711 9.93396
6.86399 9.05511 14.0422
7.20841 8.4374 12.5083
8.71967 10.8782 15.6447
7.88892 9.41043 14.98
7.26412 8.48524 12.498
7.80794 9.32008 14.1484
6.84917 8.16874 11.7834
6.56566 9.06971 13.2682
7.26852 8.93218 13.1281
7.50479 9.33283 13.5262
5.89574 7.46221 11.8144
8.1459 11.4913 18.661
7.57447 8.71812 13.4125
7.22985 8.23981 12.3155
6.63963 8.91327 14.4757
7.50772 9.19487 13.9561
7.091 7.56057 10.9305
6.26797 8.58443 13.0745
5.86783 8.06963 14.3221
7.71497 9.60713 14.3594
7.06319 8.31533 11.9524
6.06556 7.98365 12.1569
5.73302 6.15053 10.4824
6.57051 8.90281 13.6577
5.95599 7.68055 11.6619
6.9269 8.25042 11.8942
5.82382 8.31294 13.467
6.36287 7.81016 12.721
6.49207 8.30186 13.6921
8.52824 10.6801 15.8123
6.29536 8.12658 12.8368
7.45933 9.41904 15.5313
7.13581 8.89299 14.2077
6.72346 8.23632 13.4864
5.98549 7.41741 12.616
6.96031 9.55858 15.5094
7.29836 9.91886 15.8943
7.20992 10.3024 15.8609
6.53322 8.10234 13.1447
5.99096 8.48571 14.5277
5.59117 6.8479 11.3451
5.21051 6.40991 10.9855
6.15041 8.6498 14.1292
5.81028 8.34154 15.3624
6.22123 7.16746 11.1829
6.15609 8.01685 13.2008
5.73888 7.48278 12.5746
5.79657 8.26756 12.7607
5.25039 7.57121 14.1669
5.01353 6.48552 12.0057
6.35754 7.82473 12.2348
5.19373 8.08945 14.8381
6.63984 8.42803 13.3288
4.81806 6.90016 12.9129
6.05375 8.13438 14.9823
6.24463 7.64898 13.7855
6.43139 9.35327 14.896
5.79424 7.31659 11.7494
5.51136 8.6905 16.5797
6.567 8.547 13.8567
6.41282 8.96276 15.3104
5.63895 8.27771 13.5772
5.65085 8.50396 14.9054
5.96461 7.93524 14.0929
5.56788 8.44942 16.2467
7.227 9.42774 15.0183
5.64308 7.72962 12.4152
6.02892 9.80324 17.1223
5.68179 8.09418 14.8797
6.24799 9.46356 16.8347
5.41582 8.69905 16.877
5.91355 8.89766 18.1626
6.90005 9.95454 15.6061
5.65577 8.11213 15.0452
7.08153 9.7838 14.7607
5.33903 9.75542 18.0375
4.84929 6.35519 13.4461
6.21398 9.01785 15.1235
5.37017 7.78793 14.8117
6.28546 8.08144 13.6119
4.92977 6.73725 13.5397
5.66838 9.11312 16.4016
5.77156 9.26469 17.8046
5.8124 7.27292 12.9803
6.11282 8.02874 13.3707
4.63104 8.55631 18.3714
6.4676 9.60343 17.3709
5.67986 9.08872 16.324
5.16962 7.70602 15.2998
5.75575 8.24037 17.441
6.28753 9.12066 16.0321
6.73195 9.81128 16.9201
5.0305 7.61648 14.7638
5.39314 8.24325 15.0091
6.18238 11.0876 19.0075
6.14237 9.84314 18.9986
6.00523 9.87036 18.0392
5.1974 6.80036 14.0216
5.48757 8.92085 15.7708
5.39398 9.06878 16.8585
5.04964 8.42981 16.7144
4.76125 6.45172 12.9085
5.72452 8.20398 16.8022
6.1739 9.96308 18.54
5.53455 7.94035 15.4506
5.55561 8.34597 14.9136
4.92772 9.27193 18.9149
6.2754 8.86371 16.3007
5.95232 9.9679 20.1027
5.27979 7.67881 14.1957
5.30636 8.6206 17.3967
5.39266 7.33795 14.1021
5.35811 8.50707 16.9089
6.02819 10.2234 18.537
4.45788 7.53016 16.1283
5.64956 8.98331 19.1328
6.23832 9.52086 17.6881
4.88746 7.49103 15.6734
5.52414 8.26702 16.6234
5.32282 8.62616 17.9233
5.83065 9.77627 18.1493
6.08176 9.56637 19.5685
5.85109 9.58985 18.4217
5.6472 8.85483 17.8463
6.74977 10.6755 18.6972
4.74334 8.87531 18.4685
5.10922 9.6562 18.9003
5.3966 8.74278 18.8563
5.49954 8.43113 18.1972
6.25388 10.6692 19.8583
4.9091 9.51331 21.0423
5.17922 8.11994 17.2146
5.39859 8.25797 14.2409
4.4406 8.29604 19.3832
4.85291 8.73289 17.5035
5.79243 8.1 16.1826
5.27917 10.2114 21.132
5.03053 7.96023 17.368
4.96664 8.25395 18.4998
5.63561 9.46037 19.5837
5.18085 9.50718 20.4259
5.26743 8.80455 17.6544
5.61297 9.83249 20.3306
5.01518 7.47656 15.0677
5.01456 9.90846 20.7712
5.20052 8.54812 18.9384
5.29375 8.10091 17.0008
5.72122 10.5715 20.2539
5.05438 9.85434 20.9028
4.65954 8.00682 17.1898
4.58484 8.102 18.2135
4.92064 8.41371 16.5644
4.99272 9.90139 22.5902
4.81381 7.97161 19.4754
5.00919 8.45107 17.0048
4.84553 8.51834 17.6116
5.06276 7.76773 15.9768
4.11403 8.221 19.6803
5.98174 10.1271 21.9079
5.10629 8.54037 17.68
4.77451 7.13081 15.8238
5.05152 9.85748 20.9845
5.52239 9.74637 17.9542
3.64321 6.7917 16.989
5.12287 10.0999 20.0364
4.57027 7.58777 16.9035
4.92455 7.8207 16.3377
4.18567 7.02471 17.3075
5.72113 9.75746 18.8839
4.32974 8.80634 20.1482
4.53122 8.77639 21.4586
5.00632 8.76249 21.7584
5.35965 8.2284 17.5279
4.95552 9.16737 18.4727
4.25363 8.09911 19.3667
5.1606 9.1858 21.2855
4.88301 7.67927 15.1485
4.41773 8.15396 17.7499
4.24051 9.94252 25.314
5.65346 9.06558 18.3463
3.895 7.37012 18.2723
4.75917 8.57456 19.6322
4.52372 8.15118 17.4374
4.64472 8.7116 19.5327
5.38412 9.44382 18.9214
4.27045 8.31603 19.8934
5.14677 8.99343 20.0059
4.0759 8.35103 21.1742
4.18844 8.42484 20.0309
4.37081 8.4159 17.6695
4.35116 7.67799 17.4254
4.51938 8.597 20.094
4.58846 8.21535 19.7115
4.61564 8.41151 18.2877
4.37017 9.13998 21.112
4.11789 7.19032 15.5132
3.88528 7.83671 20.4906
4.32431 8.04454 21.3796
5.3215 8.95072 19.465
4.59185 7.0544 15.9799
4.23661 8.00525 18.3776
4.32373 9.51316 21.269
4.65847 10.0683 24.5246
4.3975 7.11389 16.019
3.56829 7.12212 17.8688
4.43203 8.84761 22.846
5.3099 9.09482 19.7539
4.49748 10.3247 25.9945
4.50093 7.70262 19.9414
4.8953 9.30759 21.7805
4.11131 7.74172 18.4151
4.63486 9.50959 21.2068
4.32329 8.20932 21.0807
4.42774 7.92881 19.3786
4.80695 8.17419 18.4431
4.39098 9.444 23.0497
4.71727 7.42382 16.9191
4.56177 9.165 20.3178
4.23661 7.20116 18.2215
4.34828 8.09281 18.7791
3.99493 8.73974 22.7033
4.9099 10.242 23.2544
4.27869 8.19854 17.6059
4.21737 8.03187 19.3946
3.6022 7.21367 17.4925
3.32369 6.59501 20.2424
4.91103 10.8528 26.3995
4.27095 9.05234 22.6857
4.61074 8.71624 21.2373
4.46957 8.90302 23.9565
5.09853 8.80274 18.7676
3.55343 8.29964 22.2688
4.12204 8.24818 21.8947
4.24154 8.95937 22.4028
4.64869 9.48422 23.7144
5.19502 10.0422 25.0646
4.86807 8.30695 20.4555
4.73218 8.85512 21.9614
5.18137 11.0411 25.7724
4.06027 9.95361 25.3025
4.29223 9.14776 21.8629
3.68509 7.05728 19.0985
3.91321 8.83728 22.1159
4.57375 10.9537 27.6401
4.19867 8.59646 21.729
3.84578 8.01541 22.3968
4.79179 10.2671 24.8682
4.28923 7.7121 18.7117
4.01591 8.06672 23.7127
4.48471 8.87853 19.1748
3.88383 9.22151 24.7137
4.11645 9.52312 25.2
4.22861 8.70638 20.8961
4.21938 9.1824 23.6174
4.63212 9.52606 24.8635
4.59248 9.44493 26.8972
5.25536 10.1824 25.2179
4.86211 9.28681 21.4193
4.13046 10.342 29.4679
4.68677 9.19767 25.1306
4.55978 8.20137 20.7035
4.09027 9.25791 23.9264
4.34361 9.33298 21.0722
3.87073 8.95481 22.0355
3.74598 8.86804 25.8724
3.97371 7.86587 24.2333
4.94381 9.38751 22.2199
4.33417 9.59909 22.7732
4.1282 7.63014 20.6861
4.05285 10.2045 26.0351
4.49513 9.84076 22.9672
4.37672 9.89922 26.3782
3.95056 9.07717 24.3544
3.99327 8.93638 22.8809
3.76991 7.47246 20.4448
3.7837 6.86944 19.6668
4.20104 9.34764 22.6704
3.75379 8.28461 25.8665
4.86318 10.6097 25.5733
4.12632 9.36384 28.9867
5.16674 11.1664 27.1039
4.61438 8.83713 22.0063
3.87519 10.1384 26.6307
3.77145 7.76044 19.3145
3.39668 7.89666 23.8
3.71562 8.56458 22.7455
3.92169 8.38627 23.3227
4.10505 8.81917 23.9505
3.93451 8.60612 24.1862
4.62568 8.67681 22.0933
3.34349 8.05207 21.7415
4.21868 8.87172 25.5757
3.781 7.72923 22.6711
4.01885 8.68902 22.5215
4.07693 10.4371 27.672
4.22863 9.84379 26.5689
3.68729 8.87389 25.7851
4.07831 8.70506 22.7229
4.33883 11.5284 31.1692
4.39023 8.95886 25.7865
3.78693 8.13773 23.5005
4.05983 8.3707 23.4579
3.94619 10.3321 27.3442
4.14882 11.1138 34.7569
4.56089 8.70522 20.7813
3.54808 8.05028 25.0399
4.60187 10.554 26.9614
3.97233 9.1788 24.5947
4.09902 8.28525 23.3651
3.51807 8.41072 24.5429
4.13485 9.47357 27.2651
3.8743 8.33503 22.4878
3.54106 8.44088 26.5574
4.26637 9.60553 25.174
3.93949 8.34192 25.0803
3.89728 9.71418 24.1238
3.74689 8.29516 23.9922
3.99204 10.4223 31.9115
4.82886 9.73033 25.8126
3.25295 7.20317 20.9523
3.80707 8.44294 22.4138
2.92667 8.10718 27.5916
4.15904 9.20267 23.7686
3.71471 8.40913 25.5188
3.61724 8.54564 23.4596
3.95527 8.92125 25.8283
3.61927 8.1659 23.9216
3.78786 8.26102 22.1061
3.30022 8.49442 25.6468
3.79955 8.78839 27.4279
4.01087 9.29062 25.7332
3.95347 9.97586 27.0769
4.01112 9.32114 26.9095
3.90548 8.66939 25.9607
4.24837 9.94515 27.8815
4.02246 8.70406 24.4819
3.46848 8.96216 26.5976
3.80408 8.40255 24.2658
3.52737 8.33127 23.2098
3.51328 7.75606 22.999
4.00586 9.95745 31.2624
3.71092 8.50246 23.8285
3.52255 8.31499 28.0032
4.17822 9.14753 25.1235
3.89826 9.60175 30.4521
5.26069 11.914 27.0822
3.76412 10.6211 32.3474
3.78483 10.3609 31.0798
3.8804 8.02766 29.5303
4.62781 10.1177 25.3997
3.70925 9.43321 27.6094
3.6677 9.88873 30.8244
3.89761 8.88308 24.6566
3.82653 9.36627 28.9785
3.62259 8.78234 28.1215
4.09286 9.74822 29.4928
4.12033 9.92428 27.772
3.55055 8.35038 24.5831
3.78282 10.2176 32.14
3.94909 10.0737 30.7461
4.18292 10.3813 28.628
3.24581 9.7312 29.4299
3.80723 10.4256 33.3704
4.26758 10.0758 29.045
4.04478 8.38924 26.8975
4.03857 9.71904 28.8148
3.92073 9.33459 26.7518
3.75043 9.12007 26.6179
3.46727 7.95758 24.7999
3.335 8.37075 28.1022
3.72098 8.2235 22.1904
2.92454 7.44636 25.6721
3.92631 8.97273 26.3076
3.56798 8.60993 23.6696
3.13584 9.07481 29.5579
3.89865 9.09994 29.5386
3.71008 8.87663 26.2615
3.29924 7.27366 21.6867
3.40726 9.25769 26.8433
3.47619 9.17107 28.1098
3.37475 8.08766 25.9392
3.18688 7.92524 25.7651
3.6189 9.02164 26.7205
3.86952 9.03821 25.8429
3.32401 9.37191 29.9955
3.57149 9.15657 28.0138
3.62999 7.75614 23.7936
3.25705 8.17817 27.6742
4.09404 9.41843 28.0408
3.35129 8.10605 23.6128
3.61263 9.17899 25.3247
3.05416 8.86442 30.6598
3.82652 10.3148 32.3479
3.87864 8.96139 27.0976
3.40859 10.1138 32.0736
3.90571 9.85081 28.288
3.03353 7.27415 24.8009
3.2811 8.51366 28.2097
3.5373 7.89174 23.0722
3.04968 8.03053 30.4947
3.66748 10.0972 29.6158
3.89021 9.0983 31.1359
4.12508 12.5114 35.9778
4.05014 9.80859 34.6262
3.90089 10.6115 32.2824
3.81693 11.2257 33.2213
3.62663 8.85309 28.7078
3.55663 8.38353 28.0831
3.94848 8.32105 25.1358
3.23095 7.56968 25.0177
3.69487 9.30737 27.3568
3.14304 7.9677 27.3554
3.27759 8.22245 28.4068
3.69826 8.88572 27.928
3.63927 11.4228 37.1358
3.67255 9.4649 26.1189
2.85202 6.99862 27.4158
3.82952 10.7623 30.5052
3.61191 10.1732 35.3675
3.93374 9.63584 29.4859
3.98497 9.87986 30.5719
3.4448 8.41954 27.7355
3.4694 8.61817 27.9047
3.29805 10.2811 36.3945
4.32059 10.7561 29.7619
3.32176 8.81617 26.7224
3.01609 8.26842 26.7257
3.38972 9.74956 31.1813
3.09061 7.87152 28.953
3.19475 7.59754 26.1823
3.25156 8.13995 26.0542
3.21858 9.16173 25.8382
3.15104 9.71518 33.1895
3.87924 11.2367 33.2396
3.5032 8.63062 33.5807
4.54893 11.6133 34.2159
3.68668 10.0399 33.266
3.75104 10.624 34.0879
3.37168 10.0637 33.7807
3.84233 9.86767 29.0573
3.25332 9.70671 36.2961
4.15313 10.3137 37.141
4.47104 11.1594 33.5973
3.355 8.61614 28.437
3.10241 9.12312 30.2773
3.67567 9.37541 26.219
2.88215 9.04951 28.1714
3.01795 6.65865 25.5761
3.15905 10.0265 37.0111
3.80586 9.43387 29.1469
3.54634 9.20599 30.8872
3.53217 9.34591 28.2464
3.1427 8.88766 30.7088
3.21594 8.62676 32.13
3.72079 8.11207 24.3045
2.97614 9.06258 30.4302
3.28485 10.4274 31.8968
3.31679 9.59777 35.7868
3.96673 9.12984 27.6153
2.8888 9.00451 31.1451
3.59604 8.80433 33.436
3.58113 9.46002 27.5756
2.6189 7.32663 30.9579
3.87217 9.9769 29.9753
3.36474 9.71912 30.4711
3.16298 8.46078 31.6733
3.29921 9.55456 33.6941
3.71638 10.2927 28.0245
2.65253 7.75458 30.3293
3.01998 8.6874 28.661
3.20383 8.28318 27.9756
3.26913 9.27022 30.4558
3.1029 7.96232 32.7367
3.49537 9.74331 30.7976
3.76571 10.7697 34.2633
3.88592 9.39742 26.6459
2.87882 9.98365 38.1455
3.87653 10.0148 34.1325
3.78477 9.50125 31.1625
3.48024 11.1241 36.919
3.91918 11.319 34.2716
3.3269 10.0869 36.8477
3.80953 10.5872 33.4429
3.44952 10.3774 38.5882
3.66213 10.7972 34.2022
3.76723 11.5294 40.2898
4.29854 11.0706 33.2521
3.29265 9.4622 34.3004
3.52799 11.2645 36.3646
3.48662 9.17531 32.0561
3.1485 10.1185 38.6836
3.6755 10.1272 37.5451
3.60387 10.4016 37.1885
3.77409 10.7678 39.0131
3.88242 9.40928 29.4979
3.0358 8.68062 31.6682
3.9047 12.1729 39.3458
3.92988 10.8919 38.4211
3.45293 9.28224 28.3996
2.96462 9.57065 34.7054
3.26631 7.90111 29.9299
3.08815 9.03228 33.39
3.47418 9.93592 32.621
3.36333 9.87593 32.6113
3.58643 9.21022 35.5307
3.85688 11.2693 36.6719
3.45683 9.65117 32.3008
2.63968 7.81517 31.7518
3.39972 9.989 31.9397
2.97129 8.62088 27.7832
2.78345 6.89899 26.0278
2.97534 8.7813 31.7422
3.18294 9.1523 31.2998
3.26138 8.78665 31.046
3.17636 9.18844 30.1413
3.13152 9.15152 32.6412
3.19761 10.2933 36.8096
3.19249 9.62173 35.8956
3.69894 10.3736 34.576
3.15875 8.48012 27.4499
3.08244 10.3201 34.7998
3.02905 8.62927 33.0314
2.93409 9.01313 31.9561
2.91902 9.24731 27.2565
2.83963 7.51499 28.0129
2.66879 8.23236 30.7616
3.32657 10.1348 40.3368
3.5513 10.9368 33.6528
2.99829 9.08498 33.7239
3.55648 10.5152 37.6191
3.20682 9.83027 34.6578
3.23836 8.13376 31.6749
3.21423 9.45749 27.6279
2.83631 9.47785 33.9066
3.06259 7.3351 28.3121
3.10999 8.99867 29.5268
2.94181 8.27984 30.1106
2.86483 8.81834 33.1374
3.28229 11.3303 36.9551
3.09301 8.05005 32.5178
3.3606 10.2099 41.0402
3.50712 10.0195 38.2504
3.40271 10.5534 38.3536
3.11201 9.13313 35.6911
3.53541 10.9995 38.2168
3.44095 9.35949 34.7162
3.14552 9.7559 34.1693
3.06162 7.99673 30.0924
2.9622 9.81304 36.8084
3.68636 9.1545 34.3063
3.10283 9.55429 33.4903
3.28246 10.1418 37.5203
3.07718 11.8265 35.1369
3.22533 9.28012 38.6902
3.42321 9.76562 33.7007
3.01841 7.70279 30.5055
3.29 9.8228 35.2176
3.17318 9.65728 35.4115
3.34421 8.86125 28.6307
2.78432 9.22001 40.4005
3.84891 8.71739 29.5403
3.07928 10.401 35.3781
3.26018 8.74935 31.6003
3.07546 8.37356 30.7295
2.83124 9.55565 36.6184
3.45618 9.17961 35.2991
3.36967 9.7117 32.964
3.11451 9.47485 33.8732
3.32889 9.24866 33.8031
3.44145 9.71674 34.3198
3.03579 8.30245 27.4864
2.64921 9.38965 33.4375
2.9763 8.45126 28.6037
2.56192 8.68879 33.4343
3.04056 8.37787 32.2616
2.6355 9.94162 39.3147
3.44016 8.3311 30.0699
2.89236 9.57154 35.9988
3.26316 10.1067 38.521
3.67399 9.52204 29.4766
2.89166 8.64806 29.9279
3.17755 10.8863 37.4944
3.3776 9.37633 37.6183
3.07227 9.0858 30.7815
2.87972 9.68426 31.6407
2.93644 10.2822 37.1306
3.06006 9.40293 34.3543
2.52475 9.1902 37.219
3.24454 8.87473 38.1367
3.24847 8.7742 30.4896
2.82227 8.86401 30.6901
2.71622 8.34977 32.2506
2.92742 9.63266 32.0869
2.9859 9.3467 41.4755
3.62651 9.34348 36.3077
3.15314 9.15421 36.8564
3.46248 11.0717 34.5496
3.04618 8.08319 29.813
2.8131 9.80738 35.2384
3.21596 8.64126 31.2773
3.05579 10.6489 32.978
2.7121 8.97679 37.4889
3.15925 10.3121 38.6001
3.25482 8.26884 37.288
3.35014 10.3978 39.7449
3.46382 9.49903 33.4575
2.96578 10.0575 34.3016
3.03826 8.99908 36.269
3.06167 8.30552 31.1441
3.02728 9.97126 33.3204
2.4828 8.75226 34.5477
3.04489 9.53818 36.387
3.00515 8.45062 30.0339
2.52703 9.58189 37.7449
3.3459 10.4074 35.4849
2.73874 8.34792 30.9181
2.91128 8.28496 32.4624
3.00349 10.8563 42.6678
3.50754 8.59265 32.5218
2.77344 9.42557 38.4835
3.32143 8.96241 33.8579
2.71514 7.67428 28.0837
2.60764 7.31866 33.3438
2.9514 8.40667 34.6259
3.19336 10.6882 32.677
2.96237 9.57474 41.1886
3.46383 9.67455 34.346
2.77712 9.43146 31.9699
2.80989 8.41868 34.9048
2.90678 10.1224 40.3188
3.40932 10.0312 34.7221
2.96628 9.88229 35.5695
3.03518 8.81357 35.8993
2.94143 9.87555 40.6873
3.1575 8.55818 31.7984
2.88819 9.29705 39.7956
3.38489 10.0911 29.6036
2.61315 8.55737 34.9933
3.01382 8.45856 32.8351
2.86981 9.84513 40.029
3.20746 9.73501 34.8574
3.30242 10.4372 35.9803
2.98971 9.12632 43.3526
3.79846 10.7564 34.9444
3.09199 8.69382 32.4847
3.19629 10.3971 43.3274
3.50914 10.5077 33.7809
2.82672 7.6963 31.7779
2.77113 9.06761 37.8709
3.08892 10.7924 39.9075
3.40148 8.64244 36.7542
3.14219 10.0285 36.7081
2.77238 8.78606 34.4326
3.05752 11.719 35.2207
2.38982 9.27837 42.0282
3.2239 9.12678 32.8307
3.01949 8.83873 31.0303
2.86276 8.77559 34.7469
2.92372 8.63709 28.8473
2.41859 9.9075 39.8567
3.30824 8.65665 38.169
3.07312 9.29675 30.2441
2.75947 8.32175 36.7069
2.83703 10.6614 41.3019
3.16324 9.1861 33.5466
2.93667 9.76651 35.0522
2.67789 8.93122 36.9208
3.04228 8.09341 33.7404
2.75751 8.81766 33.5682
3.13795 10.105 36.5262
2.95998 7.87591 35.351
2.93947 9.17806 33.1603
2.81791 8.90532 35.9515
2.8916 9.84373 34.2441
2.94459 9.4761 35.0782
2.916 9.4349 41.8311
3.8143 10.293 35.5164
2.76187 9.25982 34.5551
2.78955 8.51031 37.5911
2.95862 9.68681 41.6427
3.08656 10.0241 36.812
2.9704 11.0894 42.1035
3.4016 9.14611 37.7542
2.95981 8.81609 30.7589
2.50705 8.12532 37.7482
3.10659 9.96209 39.4343
3.39519 10.2998 35.7075
2.84607 9.80472 36.5886
2.95881 8.51763 37.9584
3.15086 11.2445 36.8407
3.08536 11.3639 44.5637
3.4283 9.09863 37.5805
2.73437 8.23503 34.6824
2.96505 9.84565 36.8744
3.14354 9.25822 39.3192
3.31004 8.7166 31.3077
2.74481 10.2414 40.1939
3.18063 8.59287 34.8603
3.00357 9.49107 38.0623
3.01265 9.59545 31.159
2.62501 8.66963 33.7844
3.05021 9.47642 36.8182
3.24045 9.31988 38.6065
2.91704 10.1064 34.6405
2.6579 10.7871 46.7288
3.3262 10.2022 38.4408
3.20083 9.95601 38.646
3.2027 11.1389 41.3183
3.01725 10.3228 40.9269
3.33832 10.2273 38.3097
2.81512 8.90879 36.1057
2.98668 9.69082 40.5742
3.19589 10.1937 38.1151
2.69797 9.83879 43.7465
3.43434 10.9321 38.9851
2.68059 7.40712 31.974
2.62076 10.1946 42.7128
3.52178 10.0214 37.1614
3.02602 10.2547 34.8712
2.62697 9.70321 40.5101
3.02156 8.77856 39.2595
2.93269 10.0638 34.1424
2.82839 8.29439 32.0016
2.69502 9.42831 41.8677
3.19165 10.1621 38.6978
3.3282 9.52219 39.36
2.76805 10.4538 33.9359
2.48842 8.82041 39.6348
3.32465 10.9264 42.5144
3.31646 10.7056 45.554
3.51706 9.94898 36.2175
2.7358 8.80871 36.2432
2.86925 8.72275 41.1403
3.13577 11.145 32.9926
2.7752 8.93993 34.7678
2.70754 8.45732 38.2607
3.24944 9.66722 32.2158
2.52099 9.73646 43.2878
3.55312 9.68407 37.8861
2.81109 8.99455 35.817
3.04344 11.1296 45.2485
3.63004 9.00276 31.8594
2.6322 8.54708 40.0113
3.20331 10.6515 38.8074
2.90764 9.69489 39.9923
3.32968 10.2731 40.7605
3.23847 9.63516 36.0444
3.01754 9.78948 39.3263
2.86703 9.63974 37.4043
2.5593 9.93082 33.1655
2.57604 8.5483 40.4871
3.30003 9.2336 34.235
2.67658 8.8239 38.8437
3.32848 9.74828 34.6481
2.59081 10.9952 39.1591
3.05552 10.1377 38.8168
2.97362 7.8462 30.8979
2.68466 8.37782 42.9808
3.31129 8.88372 34.9754
2.89376 9.33445 34.0203
2.5903 10.0326 35.4744
2.67031 7.90257 36.8226
2.81527 10.688 36.443
2.79883 8.67345 37.0456
2.95429 9.78434 40.8609
3.26666 9.03914 30.3615
2.37204 10.1111 40.1771
2.77537 8.9661 36.6982
2.90363 10.3657 32.489
2.2443 9.36115 41.99
3.15017 8.65801 35.2378
2.82263 8.44671 36.2521
2.81209 10.0245 40.8173
2.77119 10.0475 37.5687
2.71257 8.2008 31.7362
2.55741 9.50835 39.5937
3.25531 9.72047 37.6902
2.9968 10.5125 40.1739
3.02966 9.71346 42.3709
3.28795 9.42176 37.326
3.11131 10.1966 37.4684
2.65049 10.5991 42.8908
3.36647 11.2178 43.8201
3.20286 10.0714 39.989
3.15707 8.44151 36.3157
3.13085 9.64544 46.4125
3.42572 10.2056 36.602
2.70476 10.3 36.6633
2.94122 8.67976 35.8721
2.91729 10.9204 49.0527
3.85477 9.21116 36.5888
2.88148 9.05811 32.2993
2.59651 7.38101 28.5433
2.32794 9.40737 33.9019
2.78018 7.69047 37.6617
3.1068 10.0208 32.0805
2.46362 7.7213 38.8702
3.13493 8.85108 34.1645
2.76824 11.7043 45.4805
3.02211 8.94803 30.8103
2.7137 7.75431 29.252
2.40633 9.7422 45.3374
3.16963 9.74194 34.1
2.62924 8.68629 30.706
2.47524 8.36469 42.1218
3.4173 10.2587 42.1824
3.10947 11.4233 42.0608
2.73538 9.90247 38.7859
2.87748 9.59173 47.6988
3.64967 10.5964 39.2489
3.20036 10.323 37.0813
3.03568 8.12593 37.1438
2.85865 10.9604 42.9672
3.02841 9.9616 36.3186
2.50301 8.48098 35.4189
2.81693 10.3792 42.5037
3.22228 9.54049 37.2793
2.94509 10.8834 46.7289
3.30645 11.7846 39.5876
3.09176 7.58513 35.0986
2.85107 9.39165 41.1221
3.26155 9.47589 36.4596
2.93129 9.28089 32.0834
2.4555 10.1363 38.3178
3.00055 9.0125 37.6952
2.77834 8.68921 37.9382
2.75615 9.89896 39.3096
2.96164 10.3038 45.9493
3.64166 10.6041 40.17
2.95425 9.82062 38.0702
2.99899 9.36318 39.4978
3.08956 9.91998 45.3065
3.31497 10.0976 33.7976
2.79765 10.2892 34.6728
2.57509 8.29783 30.1505
2.26935 10.0383 52.4378
3.66811 10.1371 36.4231
2.93071 9.27085 33.9955
2.69062 10.2066 40.6523
3.17346 9.87656 45.1871
3.42037 10.1885 38.3084
2.99076 0 0