# pn-170911/RbIIA-25-RbII-1280-1959.psd
# Power spectrum* (dif=0,1,2) (really just |FT|^2)
# NOTE: only the first half! (symmetric)
# weeks: 1280-1959
# 95 clock-days, 21 excluded
# PSD: 1441
164852 3.5023 0.0160979
6.07592e+06 165.245 0.0433234
6.20332e+06 94.9145 0.0463948
2.38913e+06 47.2775 0.0352994
1.26469e+06 32.1865 0.033145
901957 21.3597 0.0328608
579723 20.8307 0.0359995
386626 15.138 0.0286017
320613 11.0275 0.0367003
246773 15.3547 0.0354893
223845 11.1341 0.0375094
210449 9.86922 0.0357737
137182 10.1936 0.0349602
138591 9.79139 0.0326445
105377 9.85346 0.0391519
101546 7.59585 0.0394377
75176.8 9.87794 0.0428423
81151.1 7.91932 0.0422571
75342.9 8.19315 0.044615
63912.3 7.86951 0.0395194
44572.6 8.09542 0.0488631
54588.7 8.57316 0.0406194
51143.6 7.74733 0.0537635
42912.2 7.63176 0.0462832
34611.1 8.48722 0.0567987
33509.4 5.40125 0.0538457
28691.2 6.98361 0.0640573
30555.4 7.08516 0.060644
31913.9 7.56046 0.0623174
24832 6.18524 0.063065
20260.8 7.24236 0.0632021
21997.1 6.4461 0.0605819
18372.2 6.61365 0.0666928
17939.9 7.34381 0.0769483
20551.3 6.24074 0.0700407
15524 7.02587 0.0676444
16591.2 6.5797 0.0923304
16954.1 6.1914 0.0754707
16610.3 6.74494 0.0837564
14085.6 6.3902 0.081888
14086.2 7.66223 0.0944571
11828.2 6.12465 0.0826932
11407.9 5.94761 0.0751579
10639.8 6.23728 0.0940161
9421.08 6.75481 0.115701
9062.13 6.46316 0.0777765
10213.9 6.85761 0.103849
10864.8 6.09562 0.108885
8398.67 7.22567 0.102929
6828.8 6.28128 0.110014
9000.97 6.18665 0.111391
9619.25 6.70584 0.125837
7755.18 6.86944 0.129376
7721.44 6.70071 0.133263
7764.78 6.63801 0.121735
7436.07 6.66063 0.15031
7821.23 8.0187 0.165691
7019.08 6.2345 0.13652
7249.08 7.51115 0.142432
6435.5 5.82517 0.118673
6166.22 6.54349 0.151297
7549.35 6.94512 0.15933
5465.65 6.7426 0.178343
7049.21 6.51481 0.171948
5748.91 6.60414 0.179038
6441.64 6.54049 0.185418
5065.35 5.68591 0.142871
5637.25 7.40036 0.188006
5332.76 5.60525 0.162213
4946.66 7.55043 0.208266
4186.52 6.46812 0.187643
4803.57 6.18261 0.184549
4383.96 6.18037 0.205252
4124.6 7.0058 0.215104
4173.98 6.91608 0.22123
3950.09 6.07326 0.205186
4764.26 5.25087 0.18601
3665.28 7.1491 0.247423
4327.48 6.4597 0.215121
3509.74 5.42581 0.190886
3176.86 6.15372 0.228671
3198.31 5.50256 0.210738
3424.68 6.15821 0.233768
3045.02 5.69063 0.226414
2942.68 5.69047 0.248913
3224.36 5.93692 0.233736
2834.61 6.47282 0.259902
2589.07 5.98316 0.250531
3009.26 5.57368 0.259399
2771.7 5.30572 0.249242
2309.74 6.47167 0.266996
2584.39 6.24183 0.270552
2579.79 6.52407 0.311077
2541.66 6.58841 0.307894
2653.01 8.24826 0.386298
2893.69 6.64933 0.293952
2431.09 5.87896 0.309067
2463.59 6.40066 0.33752
2103.36 5.83323 0.309807
2020.97 6.29022 0.337831
2215.47 6.51289 0.320153
2708.54 5.32687 0.283949
2129.39 6.28177 0.349894
1841.5 5.2761 0.305384
2250.92 5.77618 0.32573
2260.49 6.21737 0.353493
1544.9 6.4766 0.351527
2128.64 5.2854 0.331162
1758.98 7.62076 0.475416
1740.27 6.93973 0.422856
1842.39 6.26815 0.40193
1858.13 6.52859 0.426042
1751.36 6.19259 0.414348
1528.87 5.90025 0.394959
1593.36 6.09301 0.424163
1746.32 6.09089 0.397207
1407.07 6.80703 0.448939
1417.17 5.67714 0.419042
1591.93 8.00711 0.586013
1644.74 5.23392 0.424032
1848.98 6.55514 0.46461
1274.65 5.87968 0.457574
1476.43 7.13344 0.53643
2062.03 5.65209 0.449283
1569.08 5.20924 0.423919
1619.17 6.32709 0.50444
1459.96 6.73017 0.54564
1290.19 5.83967 0.483077
1352.05 6.6282 0.557257
1117.14 6.05092 0.497956
1111.72 6.67313 0.55548
1298.57 5.56472 0.457254
1078.25 6.15495 0.516093
1181.74 6.10737 0.525655
1238.19 5.78636 0.518597
1426.15 6.07809 0.563344
1381.52 4.96434 0.47809
1108 6.07442 0.588722
1152.51 6.18854 0.564857
1141.47 5.55699 0.542987
1177.53 6.98349 0.669345
1160.36 6.79164 0.669839
898.55 6.77209 0.664734
1115.98 7.44307 0.734667
1334.15 6.28958 0.676417
1008.26 6.02061 0.597205
914.38 6.61105 0.67302
1083.39 6.30411 0.710469
972.938 7.53317 0.768315
1058.97 6.93202 0.736426
934.44 5.17577 0.636835
878.364 6.19644 0.721129
1152.66 5.99718 0.686278
984.842 6.36853 0.74335
985.398 6.55216 0.765897
920.818 7.12172 0.831568
734.001 6.9711 0.81048
893.571 6.46872 0.782749
856.146 5.78167 0.706973
743.054 6.35548 0.817608
846.004 6.2568 0.804127
804.192 6.96992 0.890736
912.508 5.75573 0.763285
735.354 5.67578 0.721702
987.051 7.23433 0.970357
1099.43 5.71611 0.762887
819.079 6.89349 0.928341
723.175 7.20297 0.960022
1018.41 5.00005 0.700095
822.448 6.66633 0.912445
784.186 6.68456 0.956422
552.791 6.08252 0.876096
587.521 6.57816 0.933754
802.323 5.9021 0.902298
682.741 7.11624 1.06801
603.124 4.92451 0.729227
752.892 6.85987 1.04675
746.977 5.46613 0.786738
687.167 6.20314 0.942177
722.944 5.06954 0.806764
716.287 6.95316 1.12805
758.83 6.30753 0.965614
582.789 5.88569 0.9975
797.101 6.17367 0.965076
749.841 6.92433 1.13699
652.06 7.08591 1.10301
697.852 6.63289 1.15962
837.418 7.04249 1.15465
649.651 6.89761 1.14345
576.759 6.25104 1.08379
623.674 5.86424 1.01837
699.062 6.59486 1.13317
610.642 6.59057 1.15229
723.435 6.23459 1.09891
623.031 5.84702 1.06256
644.512 6.93423 1.2653
604.287 6.83401 1.26353
671.492 6.37636 1.16296
522.934 5.95834 1.16615
555.866 6.59502 1.27178
596.955 6.75505 1.30616
551.042 6.84375 1.30648
566.788 5.85895 1.17933
668.457 6.2207 1.2766
556.017 5.94124 1.18932
498.097 6.4408 1.27245
586.523 6.13025 1.31845
540.869 6.72652 1.36967
509.27 6.93659 1.42819
600.836 5.99508 1.2465
586.398 5.77228 1.258
543.275 5.62992 1.18258
638.53 6.71427 1.44537
557.512 6.00291 1.35186
514.73 6.61571 1.51383
481.144 6.48903 1.37664
561.879 6.51028 1.39144
543.416 7.07662 1.59545
455.11 6.53315 1.45005
509.587 5.903 1.3433
499.076 5.8273 1.36332
491.185 5.72077 1.35323
497.627 7.01204 1.60162
560.245 5.87539 1.43801
477.974 4.93263 1.14049
585.263 7.32377 1.83216
430.744 5.97151 1.45917
523.71 5.71376 1.41486
416.537 6.4581 1.53115
430.06 5.93078 1.45749
458.515 6.79481 1.75701
406.312 6.89766 1.59446
466.595 6.14551 1.6448
455.434 6.5671 1.67894
399.252 5.99146 1.56233
406.806 5.42229 1.33842
406.111 8.0922 2.12171
476.148 6.27558 1.65825
427.559 5.8538 1.65875
316.915 6.71736 1.71967
370.729 7.27931 1.9061
456.895 6.81148 1.91444
371.024 5.77731 1.60843
299.378 6.48536 1.77409
332.493 6.02345 1.78643
390.296 5.96776 1.62054
373.724 6.63139 1.94814
367.453 5.67085 1.69407
382.597 6.49046 2.00367
408.742 6.26171 1.81059
404.644 6.4938 1.80332
423.315 6.44013 1.91396
331.567 7.25852 2.15031
329.915 6.50507 1.86893
416.702 6.08334 1.84314
333.436 5.6962 1.76557
315.461 5.48433 1.74033
381.025 6.21583 1.99147
342.874 5.54125 1.67214
338.115 6.15422 1.96349
381.053 5.55774 1.76406
341.493 7.51011 2.35423
279.817 5.75122 1.84812
337.149 6.41337 2.14714
331.913 6.03621 1.89339
355.446 5.23175 1.88904
362.811 6.83229 2.25475
347.048 7.57547 2.51242
279.511 6.3453 2.11321
390.413 6.39407 2.13516
372.666 6.86812 2.47511
290.943 6.97741 2.34688
259.665 5.41007 1.93415
288.156 6.94474 2.45384
326.312 6.27072 2.2251
312.576 7.65384 2.74409
295.94 6.51057 2.32286
361.222 8.05547 2.79806
293.218 6.04461 2.10594
275.022 6.59141 2.42987
287.5 6.03092 2.17289
278.357 6.29152 2.39505
288.05 6.1013 2.33042
241.311 7.12684 2.68982
199.024 5.75382 2.05348
222.306 7.31896 2.78094
174.477 7.56745 2.97788
311.736 6.87534 2.5656
229.483 8.01493 3.12995
162.36 6.84566 2.65875
239.037 6.17998 2.40174
221.993 6.47486 2.42761
206.527 6.09814 2.44004
295.142 6.35866 2.5665
220.924 8.22744 3.44792
211.329 6.17102 2.51278
268.41 7.3975 2.81221
220.718 6.75629 2.92246
227.385 7.67189 3.09401
286.964 6.86593 2.65945
253.601 6.0771 2.6067
271.601 6.36994 2.6709
229.909 6.81695 2.90544
268.421 8.27254 3.4666
221.795 7.37787 3.14351
232.855 6.49928 2.89277
254.506 6.20154 2.71966
224.698 6.4099 2.91157
203.287 6.86405 3.06691
278.946 6.47428 2.91271
250.742 8.16055 3.61678
229.306 6.4466 3.08404
194.465 6.66011 3.06046
230.477 6.77709 2.99299
194.833 8.00298 3.63222
223.409 7.01899 3.08714
242.973 4.92146 2.34195
222.976 7.27489 3.43786
211.004 7.35528 3.54091
244.244 5.93975 2.87173
206.921 7.63576 3.50419
195.868 5.74902 2.78083
262.156 5.64144 2.63372
198.19 6.00628 2.8033
201.388 5.75311 2.68416
238.734 7.26411 3.43744
213.914 5.29183 2.63782
193.57 5.705 2.89476
203.041 5.27899 2.53863
190.964 6.22833 3.108
195.187 5.60266 2.81016
179.961 7.21648 3.68286
175.863 6.93001 3.51196
183.509 6.23514 3.22602
208.08 7.35846 3.94077
226.67 7.68678 3.9313
169.294 6.08633 3.20447
154.506 6.31432 3.21243
235.337 6.31952 3.38519
223.005 6.20225 3.33728
176.228 6.01179 3.35563
184.79 5.86684 2.99895
199.34 6.79598 3.78655
205.832 6.95145 3.55132
198.693 5.74795 2.89741
190.121 6.22046 3.38781
225.239 6.45409 3.4682
204.064 7.67664 4.16674
194.633 7.70904 4.0947
211.799 7.48464 4.14867
174.319 6.9646 3.81721
220.919 5.95134 3.35926
188.243 6.42454 3.46755
206.617 6.55195 3.57777
202.677 6.27821 3.7212
238.401 6.13224 3.52806
209.092 5.61154 3.26017
203.837 7.02224 3.96341
188.36 6.8449 3.99349
221.65 6.51051 3.93356
174.23 7.18165 4.07374
177.953 7.13145 4.14754
195.433 5.75962 3.24116
187.08 6.58403 3.99632
196.96 5.52525 3.50202
158.633 7.22132 4.15439
209.388 6.36178 3.88959
187.767 7.95805 4.60641
177.692 6.30292 3.79703
173.022 7.59261 4.59076
179.982 7.40247 4.37194
167.614 6.7039 4.2772
173.066 6.53797 4.19774
188.208 7.09097 4.41765
146.597 5.69795 3.84837
152.638 6.17171 3.97305
186.011 6.9588 4.37555
167.355 6.02663 4.12799
164.043 7.29279 4.52683
168.954 7.61402 4.91341
155.341 7.66594 5.09527
164.162 5.65008 3.50172
185.387 7.52334 5.04497
169.459 7.16159 4.7975
164.274 5.95916 4.14798
169.784 6.83706 4.6559
147.326 6.84628 4.57332
155.427 5.88556 3.92265
163.481 6.40442 4.45638
204.217 6.35827 4.45742
162.706 6.46292 4.52063
166.741 5.98499 3.90823
168.508 5.7808 4.33251
152.726 6.77278 4.98862
132.458 7.49322 4.92999
165.358 6.36492 4.45116
139.749 5.37592 3.76367
162.412 7.77787 5.53376
136.537 5.54205 3.84411
173.768 6.40055 4.70446
168.925 6.16888 4.53222
139.479 7.84448 5.64946
146.241 5.7749 4.29954
138.779 6.93254 5.03799
152.063 6.96842 4.96916
144.681 7.12501 4.98407
156.202 6.65187 5.241
156.092 7.41325 5.4197
155.516 6.83028 5.18831
128.482 4.97456 3.91142
144.994 6.05916 4.73971
162.395 6.09758 4.37456
151.907 5.89013 4.53895
161.363 7.5247 5.50817
134.022 6.95466 5.45541
134.649 5.36187 4.32696
153.854 6.78449 5.17018
129.954 6.08326 4.84065
125.804 6.55927 5.26639
140.933 5.49162 4.28456
116.722 6.16152 4.81201
122.929 8.15075 5.76907
122.252 6.76536 5.63569
150.709 7.36807 5.68479
136.116 6.72066 5.61347
114.847 7.41386 5.92848
133.356 6.02573 5.17564
121.474 7.35286 5.83898
130.859 6.72465 5.47725
129.533 6.49928 5.43389
93.0214 7.61042 6.07971
131.741 5.41476 4.39828
147.644 5.96163 4.89668
116.114 6.67524 5.76903
132.53 6.92728 5.68285
133.485 7.12808 5.94592
123.78 5.76794 4.99813
126.664 7.30842 5.77463
140.389 6.57408 5.31673
127.34 7.98196 7.36986
154.999 6.42648 5.45825
135.728 6.13637 5.40881
142.324 6.38294 4.9104
143.974 7.42929 6.55125
108.271 5.75368 5.44254
121.626 6.61005 6.00476
114.299 6.56535 5.59101
116.908 6.06928 5.10183
121.027 6.62321 5.86765
108.326 6.85338 6.07255
129.463 5.87436 5.35483
112.525 6.90263 6.20717
164.423 7.61148 6.7539
163.894 6.38484 6.11539
97.5092 7.76109 6.87654
119.743 8.27085 7.56925
158.508 5.65606 5.11062
123.958 7.88964 7.40988
112.22 5.58558 5.04456
91.5057 7.18754 6.72725
98.9052 5.18683 4.59597
140.176 6.3103 5.48833
104.47 6.78504 6.46539
94.3587 5.7811 5.04951
98.0885 5.11428 5.25134
125.143 6.05453 5.70869
106.332 7.75549 7.79265
103.014 6.71141 6.3098
121.99 7.16432 6.56159
125.566 6.89171 6.82576
96.311 6.76436 6.44239
138.488 8.28185 7.97444
112.896 5.94628 5.30509
116.388 7.09768 6.9745
117.705 6.32651 6.1359
116.888 6.06095 5.75942
101.325 6.91982 7.09534
103.231 7.59127 7.56163
119.509 7.48655 7.79616
125.693 7.44389 7.53163
101.075 7.01993 6.99161
120.754 6.63655 6.85325
105.669 7.3601 7.28675
102.113 7.3628 7.4786
108.699 5.81641 6.20543
123.27 6.53117 6.30117
102.096 6.98659 7.4389
98.2841 5.89674 6.04847
103.189 5.72546 5.97013
106.73 6.24444 7.12605
109.651 7.34973 7.27055
110.315 8.12357 8.28109
109.5 6.46108 6.58334
96.1027 6.99509 7.32262
113.301 6.08596 6.95883
113.633 7.12715 7.68059
101.73 6.34273 6.31135
117.187 6.55043 7.05127
118.897 8.24056 8.66966
106.156 6.00484 6.29359
118.399 8.35559 8.90469
109.45 6.53826 7.3329
107.125 7.62229 8.1911
103.093 7.44359 7.79108
108.825 7.62264 8.67798
99.1497 6.53316 6.85993
103.401 7.60002 8.43199
94.693 6.68403 7.37386
91.554 6.71119 7.39718
91.4697 6.84012 7.8107
82.6229 6.42856 7.5035
114.697 6.91659 7.80889
92.7181 6.99723 7.32622
109.596 6.15251 7.09374
104.256 6.76428 7.11871
96.075 6.86701 7.99934
91.5542 5.58175 7.18163
101.152 7.19571 8.28969
85.3703 7.48934 7.87202
93.8839 7.2583 8.84787
100.855 6.87834 7.56971
108.012 6.53634 7.88072
83.8177 8.26151 9.55656
90.1692 8.13975 9.50158
88.1273 5.83959 6.62269
106.922 6.3352 7.82704
81.8036 6.37536 7.87875
88.6548 8.15908 9.01027
97.8016 6.64463 8.52966
102.16 7.01119 8.97704
95.5189 8.63389 9.83294
73.8157 5.87252 7.56518
82.0363 6.11285 6.99877
91.866 6.20941 7.29921
87.5444 5.8639 7.01143
79.7534 6.5422 8.10881
98.1336 5.78547 7.37197
103.018 6.91629 8.33994
99.3255 7.27891 8.57618
111.104 6.56946 8.22282
96.396 6.46222 7.81617
77.9617 7.53693 10.1042
94.8686 7.75096 9.60678
88.0619 6.23492 7.00943
75.9036 7.20575 9.75489
103.489 6.27412 7.64039
101.998 7.15681 8.92065
81.9041 6.56904 7.58748
98.3487 7.01052 9.4572
84.7447 8.14122 10.6427
77.7664 7.25093 9.1111
88.8144 7.72997 10.5263
74.3135 6.64102 8.10433
87.6163 6.52713 8.17483
95.9946 5.89944 7.48656
78.8562 7.15961 10.2801
72.7713 6.90963 9.16537
101.4 7.1655 10.035
95.9936 6.6527 8.27199
84.9514 7.40147 9.46423
71.1894 7.03997 9.15099
80.6927 6.72383 9.05406
83.1192 7.81812 10.3196
90.2498 9.21382 11.7075
87.0222 6.44071 8.25295
95.0466 6.61256 7.89553
90.7818 7.13485 9.24797
79.8439 6.54445 9.357
74.2564 7.54841 10.2835
82.3255 6.7706 9.47587
81.9324 7.62145 9.98532
71.5648 7.11264 9.44842
69.6892 7.49842 11.2528
70.2753 8.84089 11.5396
66.7989 7.36863 9.49217
108.938 7.21372 10.0222
64.0772 7.10997 9.88195
61.5134 7.26103 9.39209
85.3411 7.38154 10.5103
68.536 7.56462 10.2092
84.9664 7.20012 9.92652
80.8524 7.75768 11.5364
64.3275 9.05792 11.9575
76.7346 6.42751 10.4196
67.7444 7.58416 10.5081
67.276 7.37014 9.92799
68.7767 7.12077 10.3426
72.854 6.02701 9.25761
62.943 6.76471 8.99547
73.6711 6.97786 10.3506
68.6739 6.72218 9.62664
83.8003 7.4454 10.3174
64.0929 6.25656 8.95913
80.4583 6.33595 8.83229
74.7723 7.08623 10.848
63.6813 6.80888 10.6609
69.1928 7.55107 9.86489
65.0757 5.81863 9.34419
68.7098 7.85604 12.1311
73.8339 5.55014 8.75613
59.8303 7.56761 10.8467
71.7574 7.53439 10.8796
56.6529 6.41178 10.2736
68.7212 8.17356 11.2116
82.8823 6.75875 10.4469
63.5273 8.78867 13.0602
56.6776 7.10006 10.6416
71.1858 7.93164 10.1989
65.6329 7.42866 12.2693
66.8025 7.44458 11.6328
65.0772 7.49569 12.2188
65.1874 8.25833 11.6147
70.6567 6.84089 11.1271
68.3176 7.96167 12.2113
67.7275 6.53413 10.8453
52.0857 6.85757 11.6614
62.7601 6.88109 9.53658
71.127 7.50802 11.4572
65.3561 6.66328 10.2464
56.5409 8.55794 14.1276
56.2659 7.83042 11.1227
73.3505 6.63715 11.0759
66.8053 9.07003 13.1464
73.626 7.87277 11.7951
57.5459 6.28224 9.52511
65.4612 8.14392 12.3209
72.6745 7.69287 13.7615
74.2861 7.58051 12.0001
64.0011 6.71211 11.337
64.2825 7.05227 11.444
73.0009 7.49027 11.6394
67.339 7.13906 12.9851
62.3975 8.20047 12.1719
69.0113 8.00551 13.4673
74.8929 7.03972 10.8543
64.5347 7.17891 12.4019
66.889 7.55965 12.7233
73.1409 7.74061 12.8548
63.4244 7.98706 13.5544
74.5226 7.88798 13.3564
56.1547 7.06553 11.3117
66.9859 6.6147 11.0199
64.0922 7.04099 11.4044
79.5534 7.11884 12.2478
71.3951 8.32682 14.099
61.7306 7.44287 11.5256
61.2406 7.75723 13.8212
75.1218 6.66303 10.8034
59.5537 7.08621 12.4576
56.0207 7.26286 12.3013
64.7981 7.08128 11.7396
65.4663 5.45454 9.75567
69.547 7.34481 12.2913
51.2314 7.29869 12.0393
69.9648 6.19847 11.0761
63.3244 7.36431 12.6518
67.5178 6.73975 12.0577
58.4711 6.75697 11.2103
59.8222 6.67168 11.5665
66.7012 8.18009 14.2633
64.2296 7.45119 13.7763
67.4013 8.03503 12.298
60.0313 7.72887 14.1962
63.6176 8.23262 13.6882
66.4202 7.34576 13.3602
58.2553 8.87595 14.9031
68.2359 7.59182 13.2482
66.053 6.93809 13.1809
56.9768 7.38804 12.0753
54.6597 8.46072 13.4557
75.104 5.91781 11.5257
62.3611 6.71273 13.9419
62.7286 7.88522 13.1462
51.8299 8.31177 14.2511
56.9462 8.36697 15.5974
55.1209 8.0564 13.8742
67.8111 8.17128 14.8924
64.5981 7.25651 13.5073
52.6835 7.97861 14.8899
60.4113 6.50353 11.7178
68.0501 6.84513 11.3756
52.7191 7.42799 14.2332
48.9426 8.0583 14.1979
61.8134 6.92341 12.5714
57.2288 9.00875 17.0372
55.731 6.86252 12.2646
57.0335 7.90429 13.1893
72.5484 8.10179 16.8165
66.5284 7.87914 13.6744
69.2629 8.54718 15.5113
60.4773 7.43042 14.6364
50.9692 7.70068 13.0219
65.4369 8.56807 15.896
63.2216 7.49737 15.544
55.3202 9.06776 16.4759
56.5267 7.06963 14.3319
60.5158 7.14006 12.463
53.4754 7.91705 15.2393
63.6334 8.12401 15.6148
61.5667 7.30179 13.2472
53.3337 8.11772 16.3711
63.1568 6.77741 13.9139
61.6928 7.44923 14.2346
64.9138 6.58948 12.3452
57.0842 7.4542 13.5422
61.3232 6.82828 14.1504
57.3039 7.72735 13.7582
60.9953 8.54283 16.5613
52.1447 7.5105 13.9626
58.8626 6.33134 14.1358
53.9106 8.81395 16.7084
58.9943 7.45423 13.8789
51.9467 7.23803 13.4039
47.2651 7.88913 15.3887
56.2767 7.27792 13.0312
56.8891 6.84586 14.0565
58.3395 6.61957 14.6731
53.1936 7.93344 14.4981
40.3166 7.37623 14.533
55.9144 7.08676 14.3979
59.8322 7.40319 14.7871
56.4627 7.95196 15.9941
59.4091 9.44423 18.7649
46.3221 6.64722 13.2042
59.6928 6.51733 14.0531
54.9582 8.45721 16.1989
49.85 7.60306 16.0249
48.1771 6.75352 14.4349
56.6697 6.67776 14.2648
56.965 8.83627 17.8191
51.2253 8.51651 16.746
59.042 7.12481 14.4657
51.5968 7.09088 15.508
53.8927 7.28881 15.5853
55.021 7.97573 16.105
48.8179 8.96329 17.5731
50.9964 8.55828 19.324
52.1637 6.89452 14.5897
60.5229 8.43965 16.9588
43.5815 7.47267 15.3468
69.954 8.30062 16.5093
57.802 9.5813 18.6342
48.1407 7.42092 16.2684
51.5766 6.90051 15.7184
70.2033 8.5609 17.8906
51.1748 8.33083 17.9191
51.5124 9.75728 19.6653
42.4707 6.92584 14.4032
50.1574 7.94925 17.0008
47.8964 7.62322 16.0153
50.1888 8.47761 18.4391
48.6312 8.63605 19.485
43.6205 8.98151 18.3519
56.629 6.13172 13.6663
52.9254 6.80611 14.0886
47.6491 7.2723 15.8026
59.6996 7.31453 16.9238
52.8595 9.15462 19.0365
44.5022 6.96934 14.0607
48.5029 8.51428 20.1451
53.4977 7.64195 16.3003
47.5145 7.26596 16.822
46.7172 7.69953 15.5978
46.7907 6.97563 15.9966
53.8286 8.52166 17.7794
48.2226 7.67938 16.4359
57.4976 7.84757 16.8304
52.3938 8.42959 17.8976
44.2851 8.11664 19.2121
53.9537 7.24215 14.8792
47.9178 7.31802 18.1438
47.3119 8.59341 18.3262
42.6036 7.57645 16.8024
56.2713 6.92976 14.386
57.184 9.15239 21.5536
47.4987 8.32079 16.8806
52.1873 8.21266 20.0362
54.7088 9.0465 20.1705
47.5096 9.15351 21.2667
61.6962 8.80867 19.4399
52.4486 7.53227 16.7973
45.7697 9.28073 21.9726
64.3581 9.70354 19.6514
58.3956 7.85803 19.1008
46.3134 7.80047 17.359
61.6493 7.75055 19.4088
57.5619 7.06695 15.448
57.3701 9.59636 19.7156
45.5593 8.14471 19.9246
48.9527 7.7419 18.5141
50.2338 7.68313 16.8836
42.8413 8.46672 17.4974
48.0995 8.1869 21.5173
48.0646 7.74638 18.6981
45.3202 6.85758 15.8861
43.4651 8.79248 20.9686
44.6486 7.29339 15.5268
37.9349 7.90235 18.8294
46.5175 6.80414 17.71
45.6963 8.58854 19.8525
45.207 8.10178 17.1493
58.0898 9.66502 20.3921
48.8772 7.78081 21.2552
48.6633 7.40346 15.1956
48.4095 6.75029 18.8011
49.4721 8.64795 19.4941
47.5729 8.62229 18.5954
37.8945 7.91197 17.8805
47.1305 8.33399 20.8622
51.2544 7.74522 18.7221
39.7684 9.7592 22.4925
44.3777 7.6725 18.9224
46.4462 8.44173 19.0061
54.7285 7.96373 21.4348
36.81 8.49671 19.8755
38.4658 9.9545 21.6198
51.9052 6.37503 17.0903
52.0373 9.17931 19.6937
40.0516 8.63518 22.3703
46.1724 9.61629 20.8919
41.6317 7.35181 18.8114
47.7549 7.78068 17.4068
52.4204 6.95934 18.0229
46.8312 7.92662 19.9507
45.7775 8.73853 22.5959
49.4207 8.35308 20.1658
46.2821 8.00387 21.2493
56.5587 7.64934 17.5224
52.162 8.23944 21.69
43.9762 8.31985 18.7121
47.5579 7.94649 19.4557
45.9952 7.00276 20.0753
52.0168 9.10182 19.747
54.8289 9.05993 21.667
50.4959 7.02402 17.8103
39.3468 7.55404 18.9929
50.8773 7.87482 20.9141
41.5858 7.33006 20.127
40.4988 7.02335 19.0562
43.2005 8.4848 21.7913
43.7228 10.0076 23.9624
45.4357 7.33329 18.5712
46.0984 7.73975 20.0408
39.1591 8.82679 22.8009
39.6981 7.79758 20.6496
58.1489 9.71328 23.6584
53.1059 8.67322 22.407
37.8144 8.81481 20.3872
42.9775 8.98811 24.7621
46.7677 6.63091 16.3069
49.5453 8.76 21.0759
54.1819 7.50557 18.3436
41.6476 7.82318 18.9556
47.4783 8.22251 19.9758
56.0775 7.51467 19.6832
50.9345 7.66135 20.9324
44.622 7.33972 19.0453
51.2075 8.88398 24.0078
46.9513 9.10008 24.5155
44.2809 8.62199 20.7284
47.5719 8.77137 22.8173
47.72 8.23828 20.9174
51.2967 8.62344 22.5767
74.1973 9.7836 21.4261
41.263 8.55346 21.7321
46.961 7.48118 22.5113
65.7503 10.3591 29.3941
49.0022 7.99993 18.3884
50.4555 7.10412 18.6301
50.4156 8.20854 22.6813
42.1659 9.43505 26.5438
45.3767 8.16784 20.507
44.1487 7.7918 18.3599
45.9723 8.56503 20.2575
39.6891 6.12491 20.3762
40.0113 7.68731 20.681
32.1748 7.06507 18.1962
40.3369 9.4512 24.0309
39.6482 7.58465 22.1445
44.1111 9.25385 24.3902
43.6917 9.00088 26.5627
45.7815 8.08383 18.7841
37.4867 7.95066 21.159
36.1912 7.91665 23.4917
36.9731 7.40086 20.1917
38.4569 8.18359 21.7164
35.7461 8.0708 20.9545
31.3333 8.39217 22.4896
28.3214 8.63824 24.8592
39.8415 7.82099 18.8125
34.9123 8.58391 26.2285
37.5574 7.2902 17.6593
36.7283 7.83192 21.3383
36.7741 8.05187 23.1039
34.7924 8.83978 23.2185
43.6434 7.45243 17.8986
39.3676 7.4113 22.8954
38.7885 8.11859 20.6063
39.5529 6.76443 17.3782
43.1012 7.70988 22.8007
38.1467 7.63868 21.1864
39.2909 8.50714 26.4699
39.3286 9.06903 23.7123
34.9729 9.12104 23.912
36.4822 7.50255 21.6652
35.9388 8.6202 26.8714
41.2344 8.28464 21.4726
40.4339 8.20722 22.2529
35.1878 8.80849 26.0951
44.7607 7.43874 20.8082
40.654 8.08139 23.6607
38.7869 8.19965 22.2952
36.1257 10.2502 26.6585
38.4416 8.37678 23.9508
40.4231 7.80647 22.3537
42.1867 7.57465 22.0814
38.5895 8.58104 24.5468
41.8299 10.6922 31.002
44.4183 8.70228 25.4009
36.3234 8.37404 22.027
33.5344 9.01425 27.2575
36.947 9.11607 23.3659
40.9001 8.05652 21.9701
35.0304 10.42 31.7616
41.2395 8.50705 24.0267
44.1388 8.13427 23.3065
39.9734 8.13436 23.3956
37.4634 9.23716 25.6576
31.482 8.68228 24.2748
35.4882 7.95325 23.6375
38.5262 8.10103 23.2893
43.1644 7.0992 19.9526
39.622 9.7852 29.258
32.9908 8.06582 20.7387
39.6272 8.32694 25.805
44.9317 8.09284 23.661
34.5767 8.15587 22.0434
30.3789 8.36466 23.5799
32.8743 8.35315 22.7525
42.4627 7.53375 24.7414
37.2299 8.40982 24.1458
37.5765 8.8725 25.2643
43.812 9.88198 27.1181
41.8545 9.34046 26.7921
40.9795 8.12316 26.6447
36.3164 9.55024 25.7955
37.8391 9.33606 27.5984
43.7127 8.67986 26.3746
38.9461 6.96759 20.3399
42.684 9.60136 29.7226
33.9995 8.19582 20.3657
42.4115 7.20987 24.619
47.3859 11.3515 31.0848
39.7188 8.98233 28.2696
40.8271 8.66523 25.5672
42.014 8.73803 25.4979
30.1075 7.79101 23.5671
36.5874 9.7653 26.857
42.9791 8.72115 28.349
36.3752 8.35961 21.9361
37.399 8.57721 26.0548
34.1393 9.00138 26.4043
34.4711 8.01884 25.2117
37.5768 8.43192 27.1563
38.8241 8.23651 22.4633
38.3344 6.90516 21.7822
28.096 9.33403 29.0088
33.0946 8.99737 25.583
40.2535 7.88105 23.975
38.4326 9.61537 29.6539
32.2817 8.96734 25.7266
40.2094 9.29829 29.3
34.3327 7.04503 20.9684
34.1678 9.36446 30.0029
30.9866 9.70602 28.8152
39.6565 7.59936 20.5005
35.0055 8.3427 25.8445
38.254 7.94599 26.6587
36.588 9.88544 29.3573
34.0796 8.30157 23.3769
41.2394 8.78926 27.9099
43.4305 9.20549 27.9717
35.334 8.13481 24.141
32.4049 7.29444 24.4273
42.7402 10.2908 26.3969
36.1162 6.88702 23.8858
36.6365 7.84102 23.4178
37.149 8.10658 27.3873
32.9276 8.31376 29.5476
39.2024 8.75719 23.7744
37.3892 8.2816 26.4157
40.5 8.12921 23.0879
34.1627 7.30912 24.0459
38.423 8.32882 27.4909
35.954 8.46904 29.0347
40.2488 10.3556 29.4231
31.07 7.45878 22.4855
38.4727 7.3883 24.9069
34.9153 8.18882 23.5957
32.9366 8.204 28.0942
31.7128 7.87916 24.9671
30.5196 7.31418 23.8338
34.2116 7.59178 22.9573
38.0469 8.59986 28.311
33.8884 8.58686 29.48
32.375 7.31229 21.757
29.097 8.16295 25.5712
38.3078 7.96542 27.2731
37.5646 8.11862 25.8482
35.6242 7.58917 24.0882
37.4499 8.69707 27.6695
28.9019 10.085 28.1508
34.2931 7.8921 25.6581
38.5659 9.23498 31.6913
33.0057 6.72179 24.5672
35.3375 9.41021 24.9752
40.6736 9.61454 32.804
31.5149 7.13122 24.4833
38.2034 7.24356 23.5581
50.1524 8.99376 26.5383
33.85 7.58311 28.6601
40.4258 9.83738 27.0518
40.514 7.89876 24.8455
36.3489 8.38698 26.6145
35.0576 7.9831 28.0784
33.1305 7.29074 22.7447
36.5552 9.93823 27.5184
30.6529 7.68796 25.9177
45.4265 8.67096 31.1855
40.2939 8.40675 27.2873
28.0813 8.41604 25.4777
36.125 7.60739 24.2689
47.5018 8.44112 29.7536
28.9736 8.97622 30.2074
32.4941 8.11798 28.7248
31.3884 7.31782 21.7839
32.1575 8.76158 28.2366
35.4634 9.14786 31.739
40.2452 9.06274 32.1608
34.8379 9.71251 27.7906
31.3058 8.90372 27.3553
36.8168 7.72652 26.9371
32.3242 8.62626 27.048
29.3546 8.18674 31.4016
37.0852 9.7087 30.1394
34.9976 7.77971 24.0711
27.7079 8.3681 24.9146
33.3684 7.72506 26.9449
37.485 7.43205 24.6396
32.6749 8.43504 28.7455
29.1799 9.95634 32.322
29.5339 8.27065 25.9369
31.4834 8.91304 28.8313
29.9842 9.26408 28.3831
37.5083 8.3412 30.8945
36.9639 10.1295 32.37
38.2405 9.30385 31.63
35.4066 8.7313 31.3237
35.1079 8.1822 26.9754
31.6676 7.5482 22.8527
28.6543 7.73667 32.3335
38.8423 8.68535 24.8393
30.2996 8.23187 25.4385
29.4248 7.40281 23.6916
34.7844 8.29944 24.4229
34.5187 8.01631 33.2196
31.0685 9.27211 31.4763
41.8213 7.98284 27.5568
35.0817 8.62197 26.5678
32.8409 6.968 22.9009
34.3618 8.76848 32.2482
35.3867 8.91476 26.7927
28.9701 9.0498 29.2314
35.0406 6.91046 21.9496
37.9184 7.62686 26.9915
35.1496 9.43383 30.5896
28.7544 7.97702 30.6666
38.9152 9.06912 26.507
32.372 8.42887 29.5389
28.1146 9.05792 34.0804
31.8237 9.13223 31.0827
33.9935 9.20871 25.3443
32.3076 6.67428 29.917
30.2338 9.43265 28.9967
27.9771 8.58212 31.5711
32.4509 8.45779 31.0194
32.164 8.4999 29.1996
29.0867 9.14222 27.9753
27.392 9.047 34.5593
31.1179 9.22588 30.9117
37.7448 9.01799 31.0336
27.7685 8.89144 28.7486
35.0486 10.0703 33.4929
33.1714 8.06093 27.5956
29.9666 8.73725 31.6202
26.0241 8.7552 36.1222
34.184 11.0413 34.1273
33.613 10.0019 34.7217
28.1959 7.48587 25.7092
31.6504 8.16297 28.7195
34.3225 9.02075 32.3422
38.563 9.62055 36.3286
28.7232 9.3277 29.6618
35.87 7.9177 26.2595
39.9968 8.17988 30.4627
31.4122 8.70864 34.1225
28.3728 10.3046 34.2943
36.1529 8.59977 25.9695
31.138 10.7416 30.7297
33.0039 8.82776 29.7953
31.9606 8.63312 28.2616
33.3213 9.96394 39.0143
36.8953 7.79181 26.0071
35.8321 8.14516 30.9613
34.8612 9.14886 30.5622
40.0705 7.35798 29.3781
33.2959 7.92157 27.9503
31.2374 8.45318 27.4181
32.2459 9.38559 33.8202
36.0618 8.1695 27.1133
38.59 9.1045 32.7339
36.8696 8.78175 33.4874
41.9684 8.24567 26.8216
29.7809 7.99457 30.6091
40.1701 10.3539 34.3867
31.9513 7.96157 28.9922
29.6293 7.12971 26.8154
31.763 7.83362 30.1518
27.0541 9.58806 36.1214
31.7688 8.58287 29.9293
30.3652 7.9295 23.4109
26.8066 8.15668 33.7293
29.4866 7.9872 26.6328
40.0337 7.20261 27.0306
35.9925 8.71355 31.2724
30.3845 8.73036 33.3115
32.6056 11.8061 36.2207
30.2413 7.61456 30.7033
34.0803 10.036 31.71
33.004 8.11264 29.6115
28.4099 9.77549 35.731
35.5792 8.49776 35.7041
37.5837 9.49802 29.7113
34.4633 8.91826 31.4562
33.5872 7.62754 26.65
40.7103 9.23236 33.107
35.9801 9.59253 34.3233
37.5977 10.0808 33.4412
38.987 8.26128 36.7392
38.2162 9.84896 32.1474
44.8327 8.93231 30.0719
59.6913 8.26668 29.7706
33.3566 9.06843 34.7262
45.084 10.233 37.9583
59.3196 10.2945 33.2656
44.235 7.44499 28.0599
41.6955 9.0883 30.3077
43.3401 10.0721 36.2656
33.9803 9.77234 33.351
38.7843 8.36776 37.0621
32.5759 8.36482 34.2123
32.515 9.86022 32.9113
35.0551 9.32928 36.0889
28.8176 11.1268 36.4902
29.7706 7.98236 33.6583
32.3056 10.2283 30.9494
27.6017 8.16667 35.5638
29.4005 9.7796 29.2735
28.5056 8.71743 29.2266
27.1426 10.0819 38.1501
26.2899 8.06889 28.3271
27.2376 9.01848 34.6812
26.5936 8.11247 28.2347
27.9712 8.25533 31.0348
23.4854 8.35729 29.6058
25.5364 7.16171 30.1746
24.7348 9.33074 35.4499
32.2299 7.92929 33.9393
27.0536 11.1036 41.4722
28.9336 10.0645 38.388
36.0623 9.04723 34.1297
28.0003 10.2728 35.4244
29.448 8.8691 28.2498
34.5539 9.38962 33.5163
32.2708 8.15564 30.6885
32.0664 8.15223 34.8673
31.4166 9.54327 30.8077
30.2854 9.48895 33.9731
32.4362 9.3827 32.1629
32.7516 7.50548 26.3568
29.8529 7.41005 32.1735
29.585 9.27392 32.6435
25.8236 7.30456 26.5328
29.6036 9.34082 35.0859
29.8345 8.73528 32.2855
27.0817 7.55832 28.4734
24.3576 7.69856 33.0996
34.0849 8.25802 27.9889
29.9235 7.45595 29.9959
32.3234 9.99657 34.8073
32.6923 9.99469 39.4559
29.5094 7.76186 30.8303
29.294 10.1771 28.0485
31.7218 8.25905 33.3249
24.7593 9.30744 35.4152
32.619 7.86898 27.4759
29.9285 7.61804 34.6837
31.1109 9.33075 30.1214
28.1448 8.82352 32.6392
24.6085 8.77343 28.817
30.7419 8.64017 33.6248
26.0172 8.54136 29.2351
34.2118 8.14131 31.2668
30.9654 7.99596 31.3954
29.2138 8.32431 35.7457
30.4065 8.92696 28.8009
22.5231 10.6987 38.8038
27.0963 8.32796 39.0103
30.024 10.0359 33.53
30.0254 8.62533 36.9713
28.7452 9.61522 34.766
26.2548 8.90279 28.8088
26.3763 8.52249 35.3488
38.4476 9.06501 34.708
28.7238 9.10096 34.894
23.3945 9.00834 35.4631
27.8198 9.08393 30.8363
32.3018 8.39545 30.6584
25.3119 8.64429 31.5921
24.6913 7.45666 29.8177
30.7022 9.1201 36.344
35.2053 8.36597 30.8904
31.4669 7.97593 29.5782
28.9512 7.88143 31.0333
30.2749 8.72343 30.4715
33.7604 7.9595 33.7209
28.1225 8.81925 32.9747
37.5728 8.21611 36.1972
26.7356 9.78124 32.0924
32.8995 8.7739 30.6452
35.3753 8.08215 29.7449
29.9084 8.1308 32.0441
37.0765 8.21194 32.1626
36.2436 8.82073 34.587
27.036 8.67805 35.7428
32.1038 9.2982 33.3105
30.5413 7.71829 32.6491
28.0505 10.5107 33.2638
27.2865 6.81957 31.081
25.3776 7.7893 29.571
31.429 10.0617 32.4136
27.331 9.65293 39.9459
31.5856 8.43868 27.7873
24.35 8.01087 34.9014
20.5487 8.94809 35.2819
31.15 8.57616 34.4094
33.7665 8.78475 33.583
24.1821 9.18126 32.2391
24.7608 8.96253 29.7106
28.1068 7.69429 31.189
35.5494 8.59086 32.8102
30.7865 8.67231 30.8728
26.8219 10.0534 35.5964
36.055 7.55522 30.9845
29.1287 9.44378 37.8016
30.697 8.01498 25.9778
30.418 8.2329 32.9004
26.2651 7.16158 36.2025
39.5369 9.91545 36.7377
32.741 7.76464 31.8959
28.0366 10.8504 35.2622
29.0194 7.50279 32.2361
35.043 7.64983 28.1477
29.9309 8.79056 34.0853
29.0142 8.66415 35.9826
27.3123 8.48695 32.1405
29.1083 8.25908 36.6125
34.7456 8.70707 32.6445
31.8365 7.39413 26.6711
35.8493 8.17795 32.3802
31.582 8.73368 27.4418
29.5283 7.74943 33.7129
33.0164 7.85427 31.7911
28.2968 8.20492 30.7237
27.2034 7.65031 34.6548
35.5818 8.72675 31.4415
26.14 8.26606 36.6457
29.1231 8.84768 32.6198
24.4761 9.95598 39.6974
28.9647 9.22578 30.5191
29.5694 7.9773 33.1053
23.7121 8.70229 34.071
30.7371 9.06026 31.0261
26.9668 8.82091 35.7193
23.7936 7.9755 29.3967
33.1115 8.06717 37.0858
31.3852 8.30807 32.3886
32.5818 8.35526 34.3718
29.7299 9.26423 31.5888
25.2818 8.50213 40.3597
33.0615 11.1452 35.9848
31.0693 8.96075 32.6207
26.1326 7.77275 33.7987
31.0672 8.82533 35.2219
29.9501 9.77069 33.7739
28.9 9.42138 37.6025
27.6745 8.69427 31.7806
34.2465 8.98629 35.8291
27.4228 9.37195 38.2451
30.1867 9.21427 38.7009
35.0086 9.00726 35.3303
35.5237 8.09796 32.3806
27.6251 8.75581 39.5201
31.3662 10.3469 32.2662
31.3152 9.42314 37.7882
27.0558 8.60352 39.9078
31.7047 10.6699 32.4876
28.4127 7.91642 36.6163
22.3731 8.67912 34.4577
34.3421 8.20308 33.2561
35.1555 10.2471 33.9606
25.6914 8.33983 31.9011
26.4083 7.61241 35.1637
25.7291 8.89036 31.8059
32.5917 9.89829 33.6741
26.8813 8.3136 37.2565
30.1276 9.5117 30.1076
29.899 9.11996 45.2913
20.8627 9.60907 36.1577
33.8259 10.7319 46.9579
30.728 9.44011 31.1202
26.969 9.61106 41.0107
33.0981 8.96827 33.8346
26.5089 8.98473 38.1898
21.7312 9.15913 32.1088
26.4113 9.502 40.6297
31.8969 6.90019 33.3688
26.433 9.3316 33.9431
23.6494 7.58417 30.9616
21.0643 10.0041 37.9553
30.7077 8.42387 31.903
24.716 7.27195 29.2707
30.2663 8.27413 31.4015
25.7108 7.53105 27.1579
24.8273 8.13434 32.9245
26.3973 8.84171 36.2781
29.5954 9.00869 39.8781
26.7431 9.64907 33.9022
29.9449 9.96456 37.3631
35.9726 9.95993 40.9413
32.1392 8.76241 30.1204
28.1267 9.07489 39.9705
28.1251 8.80757 37.3913
34.9189 10.0625 35.4537
29.6069 8.97394 37.804
37.1971 10.1129 41.2083
33.3855 9.59576 31.4584
30.8977 8.15306 38.6818
33.7741 9.66901 31.2299
35.858 8.53908 33.3519
30.0367 8.28904 33.5282
30.5536 9.19312 38.5422
29.3597 7.96665 31.6033
27.9908 8.04227 32.7741
27.3965 8.62419 36.8542
31.4507 9.59429 38.4779
28.4831 7.51887 31.9542
23.8669 10.6603 47.9878
26.107 11.404 38.515
33.678 10.7957 37.9953
28.9776 8.45325 34.2954
26.3104 8.86744 35.3515
25.8847 8.69255 34.0403
23.632 7.33599 32.4575
26.0597 9.24412 39.133
27.0713 8.91173 33.682
21.0679 8.86244 32.3445
25.1986 8.77031 36.9509
29.9462 7.95239 37.3719
25.9917 9.38105 32.7673
34.5044 9.0754 33.2666
29.3902 8.80811 34.3339
27.5458 8.19842 34.6779
24.0339 8.5604 36.6331
24.1619 9.88043 35.2013
27.1617 8.8997 34.8254
25.2874 10.8038 49.9163
29.9114 10.6015 41.6845
30.876 11.459 40.3231
30.5102 8.67115 34.9731
25.247 8.51181 32.2908
33.9546 9.44548 35.8037
30.0109 9.34386 35.6954
30.2678 10.2155 43.0849
27.5488 9.61777 36.5295
29.1645 10.2099 37.7524
26.8267 8.02213 33.1668
27.9297 8.47831 38.3288
34.56 9.33667 33.9411
29.7965 7.63753 33.1282
27.4485 9.51643 35.7889
31.9569 11.346 37.3239
29.5925 7.85673 34.5445
33.2722 9.33302 34.5382
28.2128 10.0914 33.2607
27.9708 6.89209 36.9798
28.6091 8.63213 36.3969
33.0963 7.67676 34.335
32.8983 8.55115 32.5846
34.0217 8.63138 35.9766
32.4706 9.97943 35.3226
23.6966 10.2558 43.2397
35.0566 8.41749 32.8812
28.5659 9.42996 37.8855
26.5307 8.8678 30.388
28.641 8.40851 41.5875
21.838 10.9195 43.733
29.7312 9.48676 41.5017
25.1822 8.95558 32.3808
24.2995 9.57819 38.8424
25.7982 9.84198 35.5163
28.4202 8.83888 32.9191
25.0698 8.26997 42.9543
27.2326 11.2347 48.7406
27.848 10.0718 31.0101
30.8877 9.08669 37.808
32.2209 11.0396 41.3498
30.7312 9.08062 42.8628
30.3551 9.97799 33.1923
27.8068 8.98509 35.1206
34.0432 10.189 35.1111
33.2386 8.52777 39.0576
30.6077 9.88903 36.9104
37.3761 9.83428 38.2671
35.0786 10.907 44.2497
37.4942 9.54044 44.9288
41.8922 10.3121 32.5869
38.5151 8.27126 38.0442
49.2228 10.7928 39.8139
49.1646 9.39645 41.2584
30.3309 0 0