# pn-170911/RbIIA-26-RbII-1280-1959.psd
# Power spectrum* (dif=0,1,2) (really just |FT|^2)
# NOTE: only the first half! (symmetric)
# weeks: 1280-1959
# 256 clock-days, 78 excluded
# PSD: 1441
56020.5 1.08534 0.0127675
1.73799e+06 49.7442 0.0199193
3.26074e+06 56.0851 0.023125
697429 14.2161 0.0167914
638609 21.8581 0.020775
330969 10.437 0.017434
249667 10.6255 0.0212356
175581 9.56156 0.0182928
135783 9.83428 0.0182729
119075 10.3761 0.0236414
78334 8.61135 0.0206883
80535 8.73183 0.0208061
52558 9.04384 0.0218367
53935.3 8.85416 0.0274941
42744.4 8.68022 0.0279617
42259.9 8.687 0.0254273
34073.2 8.60541 0.0289645
34335.7 8.49128 0.0340834
30468.7 8.41096 0.0351677
25218 7.22377 0.0282942
15412 8.25511 0.0380558
28148.6 7.91724 0.0350881
21243.4 7.4982 0.0358077
15521.2 7.79419 0.0371954
13560.5 7.75721 0.0393583
13508.6 7.59659 0.0406745
9831.43 7.35019 0.0424035
12612.5 7.14262 0.0448182
11794.5 8.36696 0.0541431
8928.68 8.12077 0.0543594
8965.42 8.11382 0.0547346
8003.74 7.09628 0.0520984
8608.57 8.77023 0.0649994
7341.49 8.26028 0.0628666
7802.69 8.02388 0.066331
7586.19 8.19055 0.0628931
6772.23 7.8612 0.0649339
6613.68 8.17451 0.0717872
5906.96 8.38832 0.0770474
6201.51 8.37527 0.0858079
4577.95 7.45066 0.0786148
4243.31 7.19047 0.075731
5323.64 9.09478 0.102246
4253.61 7.9164 0.0961862
3863.01 9.22291 0.0997032
3770.88 7.13201 0.0893423
4141.88 7.75948 0.0914345
4366.08 8.38952 0.108528
2899.57 7.542 0.105888
3339 7.72301 0.101951
3438.36 7.35566 0.115994
3395.15 7.46903 0.120671
2755.85 7.96536 0.1284
2912.39 7.97357 0.127258
2812.76 7.00186 0.120162
2947.41 6.42787 0.116561
2714.69 7.07981 0.132832
3132.67 7.66639 0.142588
2665.83 8.00835 0.152103
2764.16 7.83023 0.153674
2529.75 7.54459 0.149387
2562.35 7.21713 0.150431
2538.24 7.31958 0.150847
2714.95 7.34859 0.159483
2368.26 7.43752 0.171786
2365.45 7.6747 0.166117
2053.5 7.50372 0.180337
2575.13 8.43405 0.204552
2064.42 7.4675 0.192144
2110.88 8.2734 0.199362
1842.01 7.93376 0.199211
1927.71 7.95457 0.204566
1834.83 8.41644 0.221351
1492.19 7.65327 0.221707
1705.6 7.63725 0.221921
1756.61 8.10436 0.235095
1722.1 8.56049 0.253197
1667.08 7.92463 0.247104
1547.57 6.97301 0.22185
1494.5 7.55205 0.244408
1396.68 7.40792 0.248211
1385.26 7.63237 0.257557
1313.93 7.77489 0.275355
1174.48 7.57442 0.263226
1181.16 7.92378 0.266907
1294.93 7.47596 0.269239
957.725 7.73925 0.273118
1124.61 7.6632 0.284564
1104.33 7.47997 0.297628
912.597 6.8394 0.268601
873.71 7.72217 0.313047
1077.81 7.98729 0.329779
1046.55 8.22997 0.347689
893.114 6.00732 0.26809
1067.12 7.49604 0.340509
1083.27 8.63815 0.379837
779.394 7.53887 0.342228
1083.85 7.53999 0.341802
941.306 8.14264 0.403839
705.344 8.29134 0.416224
860.32 7.50737 0.372948
1122.7 7.92184 0.420156
920.336 7.33702 0.378571
988.175 8.51619 0.42577
870.362 8.7357 0.483965
959.416 8.07307 0.428032
654.544 7.12775 0.407283
907.943 7.90746 0.461192
725.253 8.05522 0.464328
747.336 7.6029 0.442336
659.001 7.87678 0.468647
843.245 7.50563 0.439537
774.82 6.89226 0.413859
588.782 8.01339 0.523076
711.789 8.33449 0.53017
778.099 7.36455 0.484973
485.057 7.94226 0.530788
483.92 8.64321 0.57703
631.876 7.97672 0.548963
647.038 7.50866 0.518291
664.821 6.90681 0.483407
514.559 7.60027 0.546799
580.532 8.41413 0.618988
776.21 8.11754 0.619
662.819 7.59559 0.563853
563.427 7.59359 0.579308
533.605 6.49306 0.49751
502.463 7.34536 0.584889
508.304 8.02482 0.630899
484.644 7.945 0.60768
521.366 6.68489 0.554906
536.885 7.96271 0.643514
490.615 7.3946 0.628924
474.399 6.13417 0.513099
466.161 7.64887 0.65723
525.158 9.03558 0.780996
515.032 7.70745 0.695894
426.26 8.10273 0.735213
401.389 7.62715 0.709832
479.987 6.94389 0.648844
487.568 7.71696 0.721375
476.501 7.26516 0.71468
362.352 7.91492 0.768187
463.24 6.90728 0.678332
415.47 7.74514 0.793571
444.611 7.28082 0.733931
350.856 9.3864 0.974765
402.704 6.44207 0.672469
407.152 7.18777 0.747
406.822 7.78421 0.832146
353.926 7.52152 0.805947
427.638 8.43857 0.924968
415.543 7.61424 0.844013
467.455 8.42147 0.96597
394.109 8.05746 0.950265
373.548 7.18798 0.832996
357.026 7.7063 0.873422
411.946 7.61292 0.884768
357.775 8.12436 0.972535
311.581 6.76565 0.80538
322.991 7.56711 0.920687
313.735 8.21521 1.014
344.345 7.95333 0.969106
310.07 7.80517 1.01611
449.528 8.30288 1.06156
388.232 7.03595 0.938641
310.487 8.68996 1.14756
290.921 7.21149 0.994213
405.22 7.3065 0.987985
326.193 7.31624 1.00171
319.761 7.71144 1.04382
219.895 7.42472 1.04475
234.64 8.4422 1.17039
353.557 7.96766 1.15489
296.819 7.84182 1.13242
229.225 7.93296 1.17423
294.891 8.00344 1.18519
312.698 7.17417 1.08513
247.444 8.59728 1.32169
282.299 7.54022 1.1403
296.979 8.28104 1.24936
329.111 8.17167 1.31975
223.162 7.33385 1.1429
301.085 7.699 1.21902
287.976 7.7127 1.23291
327.079 8.35651 1.38077
274.067 7.41684 1.23302
313.361 7.19919 1.2477
256.816 8.50662 1.42665
212.403 8.05028 1.38259
262.118 8.13357 1.38411
288.816 8.42544 1.4257
210.085 7.82624 1.37222
280.855 7.43559 1.34202
257.28 7.42291 1.33428
235.6 8.51961 1.51966
241.25 7.20391 1.32098
264.761 7.68351 1.44727
190.618 8.26843 1.5296
211.148 8.46225 1.58971
211.031 7.37886 1.37032
218.863 9.25249 1.76477
180.119 6.63456 1.32402
254.632 9.01748 1.79871
213.638 7.77796 1.55171
193.001 7.55894 1.48278
215.975 7.44036 1.51442
228.847 8.4289 1.70128
207.889 7.71377 1.65162
232.457 8.4771 1.73999
222.154 7.33962 1.50477
243.997 7.15802 1.48104
236.237 7.94406 1.69187
219.907 8.316 1.75028
215.816 8.10383 1.71619
202.136 8.41618 1.84156
223.532 7.28517 1.64417
209.199 7.68344 1.71521
177.098 7.4733 1.68269
202.931 7.74559 1.71525
188.344 6.98466 1.59241
229.043 7.60459 1.77261
184.862 7.50231 1.7211
218.39 7.87488 1.87626
218.618 7.8973 1.96766
205.56 8.03063 1.89096
202.796 7.355 1.74595
183.474 8.46019 2.02648
183.913 8.35005 2.00596
193.523 8.43407 2.03232
156.073 7.94963 1.95024
179.311 7.56344 1.89089
179.783 7.09593 1.8249
182.239 8.11674 2.06681
147.799 6.85292 1.78859
173.519 6.88956 1.83899
150.519 8.35044 2.13017
188.727 7.99108 2.16244
168.884 7.46439 1.94516
172.938 7.63083 2.06855
137.897 7.68627 2.06323
165.167 7.7978 2.1624
158.82 8.17878 2.20103
141.103 7.5408 2.05907
125.63 7.52408 2.08475
154.433 8.71175 2.45138
166.126 8.26106 2.41479
133.231 8.04712 2.18036
131.993 7.8408 2.32141
176.435 7.96771 2.30079
145.969 7.29625 2.1156
163.785 7.42412 2.20158
155.183 9.52865 2.77552
139.587 8.25366 2.45703
152.405 7.93555 2.37256
125.49 7.80994 2.39077
144.955 7.46883 2.27967
130.974 8.01751 2.58404
139.511 8.65117 2.59458
119.421 8.33468 2.53998
144.524 7.94676 2.46993
129.465 6.93374 2.16767
111.09 8.43488 2.66781
127.473 8.00236 2.62486
117.169 8.4479 2.73413
118.075 7.2376 2.3448
153.26 7.0029 2.3203
169.017 7.67193 2.53853
100.568 8.0493 2.64945
144.686 6.54462 2.15775
140.089 9.08351 3.08357
135.377 8.31683 2.92282
118.31 8.57421 2.88291
125.777 7.4578 2.70588
123.829 7.64191 2.67219
130.218 7.44224 2.60111
103.825 8.01795 2.78682
133.846 7.47017 2.66133
102.665 9.31694 3.34479
112.581 8.04517 2.90879
105.519 7.28193 2.6629
115.745 9.23698 3.43007
114.014 7.81072 2.90103
107.8 7.45501 2.80901
88.772 7.51372 2.83262
54.8572 7.54148 2.93737
72.3986 8.2197 3.035
122.212 7.67567 2.87982
77.8158 7.70849 3.07242
64.2458 8.19191 3.00481
82.4191 8.26015 3.27274
77.9914 7.36153 2.84305
100.34 8.69159 3.40763
95.6302 6.7668 2.69319
100.545 8.2847 3.20949
100.236 8.0429 3.25524
103.441 9.92406 4.22559
99.8894 7.98265 3.35706
90.1556 7.84856 3.15246
119.663 8.39833 3.29375
88.7181 8.38112 3.39898
108.068 7.78608 3.27318
93.9123 7.85125 3.36163
101.907 8.85789 3.67502
98.8812 9.05194 3.91343
106.479 7.87627 3.35095
87.928 7.45398 3.1575
94.7239 9.65654 4.19294
77.3641 7.65632 3.29299
126.536 7.38448 3.28798
109.245 7.49171 3.26706
88.0789 7.6399 3.54002
78.9417 7.1174 3.246
91.0332 7.44188 3.41269
69.8436 8.36702 3.62386
94.8893 7.57423 3.48862
86.4597 7.51589 3.43071
75.5441 7.81996 3.56218
71.8961 6.7159 3.27225
88.986 7.64172 3.50815
89.4986 8.57555 4.01845
78.3712 7.42239 3.52084
98.1201 7.57516 3.65305
94.6492 7.98587 3.85098
84.6326 7.0713 3.33337
88.9922 8.52879 4.22799
83.1567 7.06175 3.40936
86.2581 8.16127 4.00836
75.5326 8.38912 4.21262
75.1945 9.15329 4.34432
80.6743 8.20944 4.13109
71.8859 8.60592 4.27719
73.9857 8.68194 4.24352
74.5974 8.63733 4.45781
74.1847 8.83236 4.41263
86.2338 8.85951 4.62356
62.4149 7.77646 3.95683
70.042 7.67822 3.90091
74.7745 7.61801 4.03296
89.3132 8.33524 4.43435
61.6633 7.16528 3.84025
64.8497 7.5482 3.99188
72.4334 8.78974 4.71737
79.1156 9.07389 4.64674
79.7783 8.8131 4.77737
89.7142 7.11542 3.82634
84.5181 7.94302 4.33254
85.0482 9.25934 4.98046
78.5664 7.60283 4.28205
86.8503 7.02581 3.80971
83.8958 9.03027 5.02972
84.8471 7.44252 4.20296
77.3158 8.35656 4.61013
86.8319 7.20082 4.28223
77.6248 8.12397 4.70773
99.0561 9.06753 5.13338
78.4849 8.85256 5.21332
83.1009 8.14512 4.66189
80.1557 7.18289 4.1232
81.663 7.39498 4.38249
79.3739 8.10859 4.6291
63.9193 8.03458 4.71479
80.0377 8.18254 4.98527
84.036 8.62143 5.34536
77.4657 8.52513 5.02877
64.5001 8.05126 4.85323
72.299 7.32966 4.4537
76.3514 8.37183 5.05327
69.6772 8.10334 4.88959
66.0274 7.94756 4.92534
61.1534 7.60964 4.79066
65.8362 7.99542 5.07852
71.2524 8.15072 5.00731
72.4841 8.63293 5.32438
50.9306 8.4749 5.44818
71.3903 8.09472 5.01626
68.5912 9.13038 5.6996
68.4109 7.69226 5.14627
53.6258 8.04963 5.28269
69.5822 8.39778 5.33829
66.7709 8.77646 5.63882
56.7082 7.9074 5.33823
73.8348 8.68341 5.39498
63.6292 7.8238 5.18141
54.1669 6.9162 4.74326
77.1537 8.52862 5.65629
66.452 7.32527 4.75841
51.328 7.82431 5.55665
67.7659 8.09184 5.25358
80.9726 8.0111 5.30761
67.6926 7.27773 5.22957
69.5306 8.40877 5.67163
62.0573 7.2044 5.13766
70.7135 8.70765 5.81642
55.8925 10.213 6.95991
70.6112 8.67237 6.37937
59.6375 8.28947 5.84749
63.5336 9.09435 6.45631
59.4672 9.16991 6.3385
71.458 8.85014 6.26331
59.7613 7.18443 5.239
49.7321 7.83178 5.87571
59.9103 8.54385 6.04768
69.7411 9.97843 7.05492
50.7359 8.08297 6.0851
51.3421 7.83692 5.78987
62.0863 7.9597 5.81912
60.4712 6.91322 5.11169
57.0909 7.73825 5.75653
52.2358 7.78636 6.05209
57.7671 8.55146 6.3518
65.4443 7.25741 5.19798
59.4539 8.07028 6.02694
60.6301 8.03558 6.3116
57.566 7.10907 5.55492
53.3382 8.09674 6.24337
54.5385 7.27399 5.69971
59.5922 8.09746 6.24962
56.8034 8.4443 6.61395
51.4861 7.63294 5.81258
51.0947 7.55847 5.96108
49.3342 8.31096 6.25737
45.0513 8.15858 6.77276
54.1284 8.18688 6.39187
52.7373 7.35707 5.91081
46.5861 8.58849 6.77573
40.8746 7.43958 5.78619
53.3677 8.06546 6.52428
55.9144 7.21389 5.97677
54.4382 7.81689 6.3996
42.419 9.01359 7.55882
56.0758 7.53216 6.51783
51.962 8.81378 6.97826
56.8927 8.71814 7.06129
47.5562 7.94159 6.54687
49.5019 8.01158 7.14628
49.3211 7.26414 6.13823
49.0948 8.02797 6.80012
52.1233 7.9613 6.77414
58.7826 9.31497 8.20578
53.088 7.92882 6.24882
68.4852 9.10377 8.08266
52.8783 8.54084 7.58522
59.4773 9.34564 7.52408
48.6063 8.12232 7.22242
60.8717 9.14796 7.89733
47.5071 7.89379 7.03906
45.6416 8.13212 7.17277
45.0501 8.39625 7.01705
44.409 8.23783 7.63358
48.1804 8.71324 7.44496
44.63 8.0109 7.55643
65.9954 8.90974 7.91288
56.8372 8.07609 7.1985
37.9597 8.25922 7.25147
43.6271 8.10207 7.71437
69.1242 8.94209 8.04078
50.8321 9.12072 8.29566
47.923 8.64413 7.79015
38.7072 8.14292 7.36281
37.6903 9.21164 8.56385
52.5112 6.7092 6.37277
48.1201 8.55294 7.939
39.4549 7.58451 7.0661
43.3482 8.87813 8.28327
47.2138 7.92743 7.31681
45.878 8.05923 8.23246
43.9284 7.00128 6.53114
46.463 9.12038 7.98728
55.1677 8.60604 8.53585
39.5538 7.72378 7.68672
46.0411 9.1121 8.98351
45.147 8.24945 7.83324
55.1451 7.92547 7.61529
45.6181 7.88775 7.7493
49.4697 8.27272 8.34721
41.7101 8.7614 8.70248
38.3781 9.73856 9.58335
44.2913 8.27973 8.57152
48.4238 9.06518 8.80765
34.7858 8.42689 8.52385
48.4251 9.12118 9.07525
48.725 8.85329 9.16166
37.7736 7.72389 8.09225
42.9798 7.43986 7.54986
54.1012 8.83745 8.79298
42.0098 8.82458 8.64374
41.7164 8.4933 8.93552
42.4825 8.55628 8.82573
39.5712 7.94986 8.29387
37.9797 7.88426 8.0643
45.9508 8.18248 8.66984
44.8492 7.72865 8.30716
39.7889 7.05266 7.34321
45.5826 8.01651 8.53299
45.3476 7.594 7.62047
40.2417 7.37891 8.1184
47.2159 8.45908 8.86862
46.6826 7.96143 8.62434
49.0853 8.46701 9.30453
42.4002 8.70249 9.69205
42.3742 8.29035 8.76712
41.5105 8.58507 9.10116
37.1768 8.65897 9.2736
37.7352 7.65765 8.63187
39.6033 9.06848 9.54492
36.866 8.61985 9.7832
37.0594 7.73503 8.43444
37.1771 8.06959 9.39114
42.0965 9.21391 10.0429
37.2583 7.51046 8.6033
46.2371 9.18946 10.0436
41.3007 8.34516 9.47513
41.9011 9.98025 11.3869
45.3432 8.11532 9.2247
37.6748 8.56762 9.44932
36.5541 8.148 9.66262
41.9264 9.15821 10.2735
33.453 8.26666 9.13627
41.7064 9.30531 10.7597
38.9609 8.38559 9.89041
44.7556 7.74833 8.80632
33.0542 8.14801 9.49567
39.7364 8.46048 10.0762
35.2935 8.26335 9.56149
42.2617 7.9997 9.66105
34.6386 7.884 9.10697
44.9857 8.3076 10.2093
39.4069 7.91977 10.0803
46.0758 9.51922 10.6927
35.7012 8.26392 9.72199
36.0303 8.97614 10.8674
35.9503 8.89366 10.5338
34.8892 7.40564 9.02347
36.9412 7.17481 8.97248
35.0642 8.83378 10.3768
34.3139 8.39654 10.7285
44.988 7.76882 9.13296
36.3615 8.11528 9.93333
43.4325 7.87629 9.63332
36.365 8.9395 11.0452
33.9249 8.63499 11.0668
36.3974 8.77343 10.2757
31.4216 8.98566 11.6137
34.8634 8.01452 10.2423
35.772 7.40507 9.01496
41.0247 9.60437 12.0155
33.497 9.01623 11.089
43.677 9.79385 11.8997
34.3066 8.37408 11.0845
31.4505 8.51798 11.0698
36.1868 8.46457 10.5184
31.0654 7.8579 10.2771
29.5923 8.46137 11.807
40.2155 8.95483 10.5603
39.6042 8.35491 11.1677
30.3592 8.83973 11.59
40.0874 9.10517 11.9742
40.2156 10.2612 12.4105
31.7081 7.02785 10.2462
29.328 7.73901 10.058
30.6475 8.49217 11.2885
32.914 9.11326 11.5844
38.3193 9.2049 12.9658
32.7212 8.3906 11.2742
37.1407 10.267 13.4179
31.2888 8.47294 10.648
35.9176 8.67163 11.7506
31.0302 8.98895 11.8087
33.9904 9.18634 12.4972
33.4946 9.32938 13.2967
31.4631 8.55498 11.3209
32.1501 10.5924 14.4522
22.0043 9.05923 13.46
28.9853 8.92502 12.0027
47.5156 7.92362 10.6101
28.005 10.5831 15.3242
24.4665 9.7405 13.3894
33.7431 8.8569 12.3715
31.2334 9.07165 13.0499
34.235 9.44739 13.3215
32.007 9.22609 12.9243
37.6114 10.0249 13.3818
29.2485 8.90879 12.2173
33.8996 10.4855 15.6481
29.3344 9.31069 12.1176
29.2639 7.98403 11.196
28.622 8.32116 12.3573
23.593 7.74739 11.8034
28.8156 9.40867 13.4013
29.4446 9.25162 13.3159
27.8452 8.24788 11.8089
28.714 8.07845 12.4651
32.3921 9.10218 13.436
28.5511 8.83187 12.6382
25.0816 9.40731 13.342
24.3129 8.93253 12.556
35.8959 8.25888 12.5444
31.4924 8.68523 12.7794
26.6814 7.86132 12.7221
27.9161 8.54424 12.4098
31.1858 9.13776 12.6809
23.6375 8.56639 13.4785
31.4711 8.71623 12.6946
30.8009 10.737 15.9026
27.2872 8.6181 13.3321
21.1854 9.10346 13.1725
30.4506 9.52351 13.926
26.8454 8.78391 13.5742
29.726 8.80184 13.2344
29.2633 10.1489 15.2153
31.6133 8.62816 13.042
24.7068 7.4944 11.7557
29.2002 7.76906 11.7211
25.5692 8.60376 13.9603
23.7499 8.29499 12.1904
25.5962 9.08828 13.9706
25.8704 9.44811 14.9262
29.4255 7.91187 12.4926
23.6262 8.70627 13.873
26.0735 9.84075 15.0322
30.138 8.67951 13.8431
26.7004 8.62605 13.2766
26.4881 8.8892 14.19
21.4546 8.55353 13.2504
24.111 8.85161 14.4924
26.8736 8.71913 13.8161
32.495 8.81104 14.2849
23.0144 9.41713 14.2383
24.5084 9.01507 14.1742
27.1985 9.63336 15.8929
28.7537 9.96496 15.5068
23.3553 8.72045 15.27
29.6374 8.27496 14.4671
28.9538 9.97174 16.3273
28.3637 9.28064 14.9241
28.1422 9.02505 13.9466
32.1485 10.2147 16.2988
28.7124 9.20918 15.7041
28.0238 8.75857 14.6367
24.0603 7.68425 13.0517
27.7389 9.28443 14.9795
24.4523 8.85627 15.4401
30.4804 8.5577 13.9071
25.3793 8.66589 14.5697
30.9593 9.04609 14.6864
25.5404 9.21254 15.0024
28.9099 8.89888 14.8087
27.2656 8.54217 15.704
22.3615 8.54599 14.3431
27.8245 8.50327 13.9095
28.3852 8.01534 13.2767
25.4251 7.63846 13.3671
22.7569 8.87451 14.9608
25.9884 8.07577 14.6738
26.4545 9.24158 15.016
27.3183 8.24275 14.2706
22.9764 8.52694 15.2672
25.0063 8.63581 14.139
27.5376 9.52927 15.9921
26.2472 9.12091 16.4502
27.0762 9.07074 14.8453
21.0986 8.49844 15.8022
28.7219 9.90235 17.6266
25.8436 10.0106 16.7434
22.4434 8.55504 14.2501
23.4744 8.98185 16.5724
27.9704 8.15243 14.4644
23.2198 8.4985 15.9268
22.8876 9.17724 15.5329
28.0034 9.46819 18.0995
26.3963 9.59971 16.8649
22.0056 9.20139 16.946
23.8914 7.92631 13.6486
26.8728 9.86328 18.9357
22.0073 8.87817 15.6993
27.5989 9.76034 17.286
26.9153 8.6667 15.729
23.6854 9.14225 15.9638
24.7832 8.47536 15.2123
25.0011 9.16882 16.6273
23.6161 8.85251 17.5882
21.0855 8.44924 14.3089
23.9578 9.26434 17.1453
22.0586 10.0013 19.3104
24.6379 9.4865 16.5983
21.72 9.3997 17.0154
30.6606 9.30799 18.6966
28.737 9.60067 17.7472
24.9207 8.8639 17.1273
27.6874 10.2221 17.5902
23.4121 8.29681 16.4052
20.7894 8.58291 16.2625
24.6088 9.01888 16.6043
22.4543 9.75875 18.6578
24.6954 9.96823 17.8897
20.3204 8.50897 16.054
22.5315 8.52518 15.6989
23.233 9.64834 18.9133
28.1458 8.47785 15.9265
20.7025 8.90361 17.7005
25.9063 8.68272 16.9852
24.1302 10.4041 18.7545
25.3693 8.82354 17.9782
22.7814 9.53432 18.6346
26.089 9.26031 18.1967
25.0757 9.6107 18.5437
23.7407 9.19874 18.9309
23.2625 10.254 19.3843
23.4382 8.89095 16.8213
20.0787 8.03282 15.5449
21.3408 9.02175 18.0951
20.9655 9.00225 17.2973
16.6806 8.87202 17.9496
19.5983 10.0113 20.3633
22.6369 9.13466 18.0858
25.7307 8.19725 16.8376
22.3883 9.07697 17.0223
17.4292 9.56713 19.7648
25.8555 9.52644 18.1918
21.6024 8.79529 19.3049
24.9102 8.84809 17.1353
20.2484 9.26875 20.004
19.5887 10.6291 20.8569
21.4364 9.57602 18.2796
21.8414 9.67365 18.5184
22.101 9.24721 18.786
23.1247 8.9104 20.4629
23.2708 9.08711 16.1698
26.5666 9.15077 20.1016
23.1015 9.18955 17.9023
23.9414 9.49468 18.0485
20.2088 8.51621 19.7826
27.6778 10.1493 20.154
22.2842 10.0418 20.4449
21.594 10.1641 20.3646
20.7834 7.79131 16.8402
19.9926 8.82606 19.3351
22.3306 9.41805 19.6146
21.7911 11.3312 22.7085
29.0838 8.97529 19.7829
24.5731 10.9763 23.921
19.7362 9.71805 18.4909
22.5283 10.6668 20.9432
30.33 8.72914 19.7883
19.3716 8.28706 17.2661
21.8465 10.2397 20.8598
19.6999 10.0503 21.6578
18.8324 10.9358 23.3412
21.3039 9.68243 20.2275
21.6239 9.32772 19.3305
18.6733 10.0917 22.0786
18.7599 8.92441 19.1318
20.0587 9.02619 17.4117
22.6093 9.72517 20.9521
18.8384 9.03253 19.6738
21.7332 8.98498 19.2419
22.9093 9.98554 23.3704
17.9763 9.94374 20.1895
18.5419 8.39586 18.343
21.7254 10.328 23.2227
22.2978 9.38134 20.1144
18.4348 9.05465 20.0764
17.8024 8.9477 19.0059
20.3729 9.07265 19.799
19.3394 8.63347 19.9
20.0139 8.95243 19.3481
22.1236 9.68857 20.5528
18.2081 9.85885 22.2526
23.3003 9.2152 21.4296
22.9331 9.39096 19.5849
18.8888 9.68104 22.4337
21.1218 9.18926 21.0387
26.5998 9.33256 21.2684
21.9749 9.36401 19.7318
20.2983 8.68703 18.2971
18.6589 9.04042 22.4675
20.1106 10.4228 22.5066
20.275 8.99228 19.8844
22.3878 8.57014 20.867
20.0181 9.46689 18.8279
18.9199 9.19659 21.6989
23.4674 10.3209 22.5854
23.4818 9.14994 20.7086
20.6798 10.0411 21.6948
22.3123 9.49799 21.8075
21.9759 8.61301 20.5657
27.3327 9.16928 21.6731
19.6383 10.4276 24.4365
20.9385 8.74321 19.2758
18.9358 8.63378 21.6057
19.4776 10.4032 24.017
20.4917 9.45802 22.1316
20.0205 9.43675 20.7525
16.6228 8.94303 20.1305
19.8469 8.63861 20.372
17.283 8.70856 22.1789
19.9038 9.80694 21.7426
17.2567 8.81144 20.2799
19.3649 9.85672 23.0954
18.6239 10.3113 22.1531
19.4227 10.2981 26.8149
21.7797 8.5439 18.8589
15.2651 9.07122 22.4335
19.0543 11.1725 24.957
22.3964 10.868 22.7942
16.6431 10.636 26.1774
15.0319 8.59478 21.6368
19.1523 9.75965 24.8406
24.9344 10.3422 24.8686
18.1185 9.65901 22.5324
20.6219 9.34215 21.7538
19.2398 8.63165 22.7233
24.4353 10.3891 25.2384
19.105 10.7127 26.2115
22.2627 10.4709 23.2354
21.6021 10.0333 23.2134
20.183 9.29256 23.7134
17.3578 9.82938 23.683
20.7091 9.43656 23.5153
17.0128 9.74314 24.0347
19.3748 8.9118 21.5036
24.3768 10.4646 23.2896
20.03 9.34438 23.0003
17.644 8.39088 23.3394
21.9741 10.6607 25.8735
18.6755 9.78374 24.1051
24.4792 9.87729 25.8052
20.7687 9.78155 23.7175
19.8596 9.6505 23.0864
18.0646 9.36972 21.9896
17.0627 8.63434 23.2622
20.0883 9.65899 23.7141
19.8831 10.3043 26.2337
19.7752 10.568 25.978
16.7764 9.23529 21.5047
22.9513 10.1123 25.2305
17.351 10.1533 25.7343
15.6526 9.66277 26.6471
16.7335 8.57713 20.3684
18.5515 8.59329 23.0809
15.8989 9.95538 24.7982
19.7431 10.2663 25.3543
17.8897 9.77234 24.7782
15.8389 9.3028 23.5858
23.1725 11.4227 29.3859
21.434 9.51002 23.3209
16.4974 10.557 26.9647
19.4157 10.1261 25.3667
17.8314 10.7812 27.4714
20.6624 9.37235 26.3395
20.5634 10.5989 24.7193
18.1569 9.7592 25.4769
19.9306 10.523 27.4786
20.3612 10.1855 26.479
20.6522 11.7402 29.279
17.2681 9.91221 26.5326
19.7454 10.6556 27.7981
19.62 9.44794 25.2658
20.2592 10.237 27.2053
18.6297 9.95595 25.0958
16.2539 10.4748 26.0142
20.1414 11.2176 29.0278
33.0068 10.6754 28.5854
16.9797 9.59904 27.4752
20.2274 12.0572 29.9746
24.1506 10.8341 26.0296
22.26 9.68147 27.0252
19.8342 11.2517 27.1528
17.8133 10.1954 25.8462
18.5218 11.8842 31.5991
17.994 9.81436 30.2276
20.0821 11.496 27.7679
17.1205 10.3652 25.6066
18.0911 8.73085 26.3324
16.5426 10.6859 26.9403
15.3651 9.38385 26.894
18.6741 10.1401 24.9013
17.3381 10.2058 29.4653
17.4819 10.821 28.1785
20.2007 11.4048 26.95
17.9626 10.4141 28.9871
15.2141 9.48243 24.8838
13.8587 9.28799 25.742
15.6715 10.1756 25.2166
18.0701 8.7871 24.9182
14.2957 9.9009 26.6017
13.716 10.0117 26.2645
14.8907 10.166 27.5671
14.4439 9.05207 23.833
14.0082 10.7494 30.6965
17.4186 10.7725 29.4378
15.5673 10.2159 27.5774
16.2274 10.6024 29.8706
13.2262 11.6607 30.4658
17.5667 11.4384 32.8645
15.0327 9.34228 27.1171
17.201 10.7155 30.2798
16.7483 11.1879 28.9944
20.9197 10.8174 30.4818
15.4282 10.0445 28.3993
17.0587 11.8136 30.316
14.9482 10.4335 30.6487
17.2209 9.97798 27.5312
13.6861 9.73057 24.7564
15.844 9.57341 26.2005
17.4793 9.96514 28.5385
15.284 9.76915 26.2579
16.4295 8.91009 26.4459
18.0399 8.96902 25.8477
15.8638 9.54792 26.5211
16.4141 9.77802 29.1034
15.7177 11.4794 31.3735
14.1434 9.88108 28.7958
15.5681 11.0713 28.7154
17.2081 9.1975 25.2431
14.3956 10.5531 30.8691
15.5124 9.74046 30.5759
14.7065 9.46152 27.1816
15.5346 8.99436 24.1815
12.4188 9.81052 30.5774
17.3734 10.5416 26.8179
15.9517 10.2634 31.3768
14.6594 10.1477 30.8673
15.6093 9.66703 25.574
17.5325 8.96667 25.2227
17.5417 9.69122 24.5008
13.7301 9.24255 28.7339
13.2074 10.2019 31.5237
17.6083 10.0324 29.0366
15.9024 11.9329 32.338
16.1337 11.489 32.242
15.2725 10.2411 29.7483
17.4243 9.17395 27.4094
15.8072 10.0545 29.7725
17.2863 10.1052 30.3322
16.8471 9.92292 27.9524
11.8395 9.37843 27.3323
14.8444 9.85045 29.0397
16.6551 10.528 32.5296
13.8306 8.54519 24.4076
13.1112 10.8137 32.6115
16.5738 10.3155 28.7831
17.3818 9.58766 29.7267
17.4011 11.7297 32.3356
15.4101 10.3517 28.506
16.1042 10.334 31.69
18.2103 9.00193 29.3065
18.4414 10.4504 28.2103
15.9472 9.89393 27.4591
12.854 10.1348 29.9664
20.1071 9.88389 28.8744
15.685 10.7066 34.49
18.3306 10.3319 31.4802
15.6948 10.5771 29.632
15.7084 10.988 31.399
14.1543 9.61739 28.5826
12.3601 10.2785 31.2904
15.1289 9.42554 27.2369
14.399 9.90017 30.4086
13.481 11.1131 35.2866
16.9029 12.405 36.3167
15.9119 8.73005 26.8818
15.9569 11.1705 32.5066
17.6049 10.4288 29.2549
13.6203 9.94932 29.7487
11.8356 10.886 32.6913
14.1599 9.94118 30.9202
14.5563 11.081 35.6654
15.8777 10.9475 30.4825
11.3796 9.82688 30.3615
16.5551 9.55089 28.7105
14.0395 10.346 33.1496
13.3312 10.9241 33.1928
13.9949 10.9019 34.804
15.8769 9.95339 29.8952
14.6035 10.4402 31.4371
15.3117 11.4429 32.0821
14.8608 11.3481 35.7632
16.0994 10.0771 33.2361
17.1185 9.65094 31.3585
16.5225 9.82738 31.4025
15.9905 11.6361 32.8171
14.5458 10.0466 31.7897
15.115 10.4141 30.2292
15.6786 9.42316 33.6507
13.2834 9.41813 27.5542
16.3495 11.1196 32.8746
14.7684 9.02242 26.3765
17.8764 10.2406 30.6207
15.3252 10.9553 37.037
16.6492 10.7589 35.9354
14.346 11.3883 31.475
17.6193 9.71877 29.8635
14.8 11.3412 33.8191
14.2102 10.1921 35.9522
14.8793 11.4866 33.4502
13.8246 8.88871 29.4173
13.8767 10.0607 35.2152
13.5582 11.3216 33.0233
13.6607 10.8037 32.7614
11.8976 11.252 34.7932
13.7085 10.6144 37.0208
13.1803 11.0353 34.3225
15.3089 10.376 33.0235
13.0989 9.52017 30.8876
12.4868 11.3384 34.0823
16.505 10.3907 32.3031
13.3778 10.3818 32.0976
16.0612 10.4656 36.5223
13.9343 10.0146 31.2552
12.2995 9.68208 31.9171
13.5207 11.7713 36.8132
13.6326 11.6079 37.6401
16.0338 9.59249 28.79
14.6995 9.44802 32.4281
15.1677 12.2125 35.4974
17.6541 11.5888 37.7096
15.0281 10.0463 32.4824
18.5777 10.2607 35.1827
13.76 11.0895 35.6981
18.2526 9.94835 31.5756
15.6168 10.5585 33.4334
17.1894 10.9345 30.5242
13.4138 10.6485 32.8433
13.3852 8.63384 30.152
13.6602 10.1066 31.913
14.1811 9.54226 33.164
15.9893 9.0552 33.1826
15.2082 9.45195 31.1002
13.106 11.1625 33.6155
15.8874 12.0564 39.046
20.0978 11.3293 38.6561
14.3462 10.9778 41.3823
16.5946 13.8549 42.0466
14.9782 12.0834 37.6315
12.8324 11.1789 36.2589
14.1967 11.1814 35.1497
16.5933 11.1901 34.9979
12.9484 10.6068 34.1718
11.1887 10.4023 37.5752
14.7183 10.7168 37.5197
15.7879 10.5014 34.2064
12.1242 10.0981 31.4534
13.6651 11.9579 34.0537
16.8779 10.5334 37.5081
10.9574 10.3969 36.8503
11.6636 11.9379 39.982
14.9972 11.4864 39.5605
15.8956 11.0478 32.6066
11.3369 11.4233 34.1225
11.1942 9.79181 34.8774
14.9118 10.0565 35.7727
13.2295 9.96726 34.8275
12.7369 10.4948 36.2909
14.4224 13.0699 39.6144
13.3116 12.8475 42.1874
16.2167 10.3221 33.611
13.8946 11.3484 37.7082
11.9296 9.73191 33.5649
13.4092 10.1413 37.231
16.5954 10.9309 36.4548
13.7101 10.8515 34.1406
14.3311 10.0739 31.533
13.5233 10.7387 36.8224
15.7913 10.3368 38.8859
14.5933 10.7992 30.4711
16.0918 9.38983 33.3176
15.6574 10.3417 33.4676
15.4836 8.92067 29.6777
15.5317 11.262 41.4665
15.9464 10.1236 34.0076
13.0929 10.4542 34.4953
15.5935 11.9009 39.4112
15.4628 11.3605 35.3501
16.1765 10.8084 38.8295
12.6967 9.96813 33.6792
14.1898 10.7487 38.9892
13.2172 12.0355 37.5009
11.671 10.5473 36.8215
13.115 11.3324 38.894
12.7541 12.1265 40.1926
12.8202 10.4006 37.244
13.5479 11.5656 37.874
11.8259 11.2655 40.8039
13.3542 10.9671 36.6218
13.4562 11.7 42.1939
13.5844 11.431 41.5737
11.0595 9.81866 34.3679
12.203 11.3908 41.4386
16.4126 11.2253 35.7333
10.4547 11.2006 42.1503
12.8124 10.6 32.8655
14.2202 12.2216 37.4389
11.2133 8.32266 34.5817
12.3249 11.9499 40.7448
13.1159 11.0244 40.8616
15.6935 11.2194 37.8207
12.4722 11.7913 40.0127
14.566 11.5356 40.1237
15.4366 10.3654 38.3904
16.7276 11.2139 37.766
13.7967 11.9401 40.6548
17.1929 11.7334 41.4545
16.7084 12.3204 42.0019
15.0386 11.2276 40.3825
11.8422 10.5963 40.3955
15.2484 12.3532 39.853
12.9059 10.8759 37.6402
12.1137 10.7336 33.3031
14.7307 11.2876 38.5979
15.7276 9.99606 37.7345
14.0968 11.7725 40.6881
15.7298 11.5335 37.5134
14.001 9.67322 34.4193
15.6232 9.85263 40.1847
13.6183 11.2006 45.7529
15.8948 13.0501 40.0122
13.3903 11.5007 38.0175
14.8979 12.1106 42.2716
15.5537 12.5509 41.5852
16.9594 11.5221 42.6098
16.5484 10.9115 38.3573
14.1994 10.4557 36.2909
18.4146 12.0227 44.3139
13.8808 12.2509 41.2577
11.4113 11.951 40.8253
12.9348 12.3367 44.2011
12.365 12.4225 45.8208
12.0775 10.8811 43.2805
13.037 10.039 36.7855
12.0955 12.1488 41.2167
12.9552 12.9012 45.5269
14.079 10.4421 37.6334
14.1393 11.6928 39.8847
12.5982 12.1668 47.6901
14.4539 12.527 38.957
12.487 10.9059 40.4377
14.7455 10.4908 41.4637
15.5519 12.1409 42.5188
13.0584 12.4418 43.508
12.9252 10.9064 36.7699
14.694 10.1798 43.4629
14.5757 11.646 42.4644
13.0219 11.5731 40.1722
16.1196 11.1874 41.8913
14.3899 11.0437 33.9625
14.8778 11.2023 44.2886
14.0033 11.6472 43.2223
13.4293 11.5353 41.286
17.5835 10.5904 33.6395
26.1733 11.4015 40.8577
12.4675 11.01 45.7323
21.0857 12.326 40.864
21.4846 11.9089 43.5004
19.2183 13.5044 47.6711
16.2015 12.085 45.2364
17.1173 10.5364 38.1697
16.2894 11.1842 41.4469
14.2276 10.4442 39.4488
13.3857 12.9797 42.7591
13.8917 10.5009 37.5521
15.7702 11.3758 39.3683
11.2077 11.1208 48.004
14.4132 11.5619 51.3036
14.6286 13.2234 39.0275
13.0748 11.2909 37.675
10.9119 11.7994 43.7121
13.2655 11.517 39.3903
12.5299 11.582 43.8356
11.4251 11.8592 42.6448
11.1145 11.1427 37.8992
11.3545 10.6812 40.5026
12.0231 10.7258 39.9652
10.73 11.6685 40.9998
10.5087 10.2542 38.1655
12.2443 11.2811 44.1182
12.1176 10.4997 41.7748
9.84585 10.7876 38.1965
13.3366 11.6304 39.7039
14.7911 12.097 45.1158
13.8463 11.5629 47.1
11.33 12.3482 36.1977
13.705 11.3195 45.9423
13.3703 11.2585 43.7392
14.4481 12.6426 45.7278
12.9481 10.2717 36.0089
14.6902 10.9197 40.9288
12.3164 9.05242 34.9287
13.8589 10.3605 35.1923
13.4338 11.3509 39.3004
13.06 11.5714 43.9626
11.5805 12.5884 47.2567
15.0448 12.2503 43.8939
13.1451 10.4506 43.0721
11.1556 10.7443 39.2627
11.8197 9.44462 37.0116
13.76 11.1807 39.9254
11.3734 11.0944 40.7106
13.5029 11.4377 42.5341
12.7024 12.7248 46.7551
13.035 12.2668 46.9955
11.3214 11.2269 44.3473
15.2887 11.0204 42.4267
12.1976 12.9134 45.5449
12.5488 11.4039 41.3467
13.1238 10.517 40.1559
14.1173 10.632 39.2609
10.485 12.1012 46.9914
12.1646 11.3587 44.1014
12.0561 11.7303 42.4724
12.744 10.3701 37.8576
11.7044 11.3963 46.0795
12.453 11.8225 38.2257
12.0289 11.3291 44.3467
10.9132 10.9374 42.4955
9.89387 12.0406 42.7677
11.3241 9.89069 40.2095
10.9347 11.6022 43.535
11.6929 12.6048 47.4266
10.1196 12.5891 44.0175
12.8973 9.70082 40.0794
11.6374 10.9055 39.3799
14.5172 11.9764 46.1698
12.4126 11.8126 46.3414
10.3579 10.589 43.2383
11.9309 12.9383 44.6293
13.4154 11.2276 45.2441
10.5017 12.0578 44.8242
11.4069 11.5106 38.8364
12.7732 10.2758 39.605
12.1448 9.75764 37.3945
13.5724 12.0606 44.8603
11.9209 10.4838 38.1174
13.7915 10.157 44.4936
15.5482 11.3236 41.4135
12.3536 11.9119 45.1251
13.5417 10.5228 39.3923
10.9405 10.3518 47.1882
16.4474 12.4117 41.0183
12.7179 12.6859 46.5118
14.3401 12.5171 48.2512
14.3374 10.9235 40.3301
15.8775 10.5933 43.4521
11.7654 10.0501 39.6333
11.2957 10.4358 41.3741
12.051 11.0006 38.279
10.7487 11.5724 46.6307
10.9444 12.6517 46.4731
10.8854 10.5787 44.8408
11.695 12.5888 42.6131
11.2844 11.7087 43.4952
13.2619 11.3349 41.7678
9.30936 11.362 40.5566
8.67447 10.875 41.4935
11.359 10.7787 45.7366
13.6716 10.9905 42.5842
10.5226 11.1321 38.201
9.47056 10.9777 47.0099
13.3195 13.4662 54.7333
14.3463 12.7703 42.7065
11.1253 10.8048 43.3278
12.5439 13.753 48.0682
13.7367 10.4317 38.7972
10.5664 10.666 42.8292
12.2484 10.3236 43.1673
12.6057 10.927 45.0517
11.9192 11.3744 41.0346
13.7734 11.5769 42.8665
13.1314 10.0397 39.3727
11.9504 11.6121 46.6291
12.6863 12.1881 46.1886
12.8671 12.3931 49.0929
14.1521 12.0285 50.0928
12.4285 12.3691 46.1956
12.8601 11.2657 40.8414
11.483 11.4296 43.6056
15.347 11.014 41.7218
12.3036 12.3056 48.6649
13.5794 11.3673 40.5444
10.9961 11.4393 45.1115
13.1749 10.7487 39.6265
11.8653 10.6497 40.3083
11.712 10.6723 43.561
10.8014 11.4101 42.98
13.7486 10.6216 41.442
10.3291 11.1516 44.1534
12.1935 10.8973 42.4126
11.1128 12.1406 44.2757
10.7359 11.7668 47.1323
12.2738 11.2916 45.3812
10.2573 10.9055 41.3859
13.0146 11.396 45.3252
11.9059 12.388 46.9129
10.4588 10.6276 42.583
14.1937 11.3913 38.5732
12.1393 9.04796 39.0437
13.6567 10.0098 45.839
10.8807 11.8081 41.6233
9.81405 9.96159 39.7274
12.3215 11.1734 44.6146
10.8085 11.4483 43.1279
11.527 10.9282 45.1508
12.62 12.1038 49.2126
12.6034 10.7178 38.645
13.1819 10.4461 40.6251
11.3757 11.4536 46.6717
14.5211 12.4551 49.2699
11.227 10.9821 44.2814
13.6855 11.6484 45.2819
12.134 11.9692 56.4316
16.3485 13.2067 43.4879
11.2163 10.2436 48.1181
12.5509 12.3224 43.1545
12.771 11.3585 44.254
13.0517 10.1177 41.5787
13.0716 12.7962 50.0346
12.289 11.9985 40.6569
8.91853 10.3862 44.0406
13.8213 11.2828 42.4194
14.1568 11.3114 47.9964
11.2532 11.1127 45.1693
13.418 13.5265 53.8188
14.4255 14.5141 51.5362
12.5675 10.9378 44.5181
12.083 10.4689 42.6473
12.7893 10.7739 43.7211
12.4547 12.9034 48.7204
9.29745 11.9391 44.0927
12.8081 10.9916 44.0135
13.5418 11.8568 47.8357
10.8633 10.9765 41.4036
12.6722 11.2601 42.0271
12.7343 10.3428 45.2205
9.13376 12.2364 46.8545
9.89851 12.0965 42.2189
11.7848 11.8962 52.3603
12.6527 11.013 43.5289
9.57107 11.8094 45.3913
8.85374 12.7217 48.7013
13.8907 10.9427 39.728
11.4023 9.84739 41.7181
11.6563 11.2433 45.7488
11.4068 11.4579 43.4055
10.7924 12.4285 51.1677
12.7769 11.6848 40.6698
11.799 11.2732 44.5075
11.1015 10.5974 45.6365
13.1699 12.3442 44.8982
15.0171 11.0481 47.3078
12.8161 12.3761 44.4101
13.6804 10.5073 42.9333
12.2546 10.099 41.0196
14.9337 12.7472 46.364
12.485 10.2664 44.7184
13.8142 12.0551 46.9001
12.8864 11.3202 51.549
15.105 12.2607 41.0731
15.0517 10.62 45.1376
13.3314 12.3204 46.8993
12.6392 9.98072 42.7743
12.4806 11.2723 46.4805
12.5475 11.9718 39.6392
12.1707 11.1079 41.4617
9.64762 9.45905 45.6717
12.5146 12.4309 48.0026
12.2417 11.41 48.2188
9.65888 12.4849 43.6154
11.4923 10.8689 49.8437
12.9775 12.0769 43.608
11.1744 11.0412 48.4621
12.2453 12.0406 48.4571
9.63084 12.379 44.5622
8.99343 9.60188 42.1191
12.0692 10.9589 43.9932
11.8316 12.7028 46.1903
9.28579 11.7447 43.9334
10.5739 10.7314 44.2626
12.6857 9.97365 43.3056
10.6717 10.5705 41.2054
10.6344 11.7496 46.6096
11.4541 11.9597 47.3014
10.8283 10.4116 46.9565
10.5209 11.7404 42.091
9.96122 10.6007 43.6676
12.8157 11.9794 52.394
11.2785 15.1788 50.7035
12.3722 11.5731 47.3101
12.5551 10.9324 50.1323
14.0821 11.3547 38.389
10.5047 10.3939 41.5152
13.502 10.2048 36.0857
13.6662 11.0088 44.3075
13.4291 10.2266 48.6122
11.2334 11.465 43.5781
13.214 10.2849 41.6502
11.7284 10.2403 41.2753
11.9747 13.6087 53.3087
14.5758 11.3148 42.8803
13.5771 11.165 44.1648
12.1243 11.3861 45.2524
13.7733 11.5188 44.6799
11.6011 10.7278 41.8892
15.8226 9.72725 44.4584
9.95883 12.5618 49.0329
13.7305 11.8289 45.6024
11.0366 11.5207 45.8612
12.8805 12.0633 54.5055
13.2408 13.4988 48.0199
14.8173 11.5678 44.5797
11.3694 11.4077 46.2952
12.4874 11.3227 44.4377
14.3452 11.0827 46.6889
12.2956 12.3613 51.8328
9.96802 12.7634 49.0162
11.3296 12.2222 47.2575
11.8873 11.9476 50.0753
10.9746 11.9103 45.7391
9.72015 11.3853 46.7191
10.8355 11.7147 41.7747
9.92227 11.1305 49.8772
11.0065 12.3132 47.8093
10.9608 11.9842 44.2069
10.1829 10.7638 47.1989
13.4763 10.7695 49.6644
10.8613 12.8989 46.2502
13.5787 12.0687 47.0461
14.449 10.7635 43.0961
11.0514 11.3191 42.8909
10.8259 11.0918 49.2607
14.2132 12.8682 56.1104
12.9349 12.3382 46.4161
12.6398 11.3427 42.3051
13.8081 12.3426 47.1544
16.2047 10.9262 43.9029
16.9351 11.6325 44.6898
15.2659 10.2194 47.1265
15.7599 13.4397 50.9597
19.086 12.54 51.5035
21.4032 12.6348 45.5548
12.7129 0 0