# pn-170911/RbIIA-30-USNO-1280-1959.psd
# Power spectrum* (dif=0,1,2) (really just |FT|^2)
# NOTE: only the first half! (symmetric)
# weeks: 1280-1959
# 1 clock-days, 0 excluded
# PSD: 1441
1414.69 0.224201 0.00096753
30060.3 0.0361097 0.00148585
461281 11.5604 0.00148847
129733 4.35147 0.000773772
16131.9 0.801909 0.00208561
59969.8 6.48826 0.00430499
24237 4.88146 0.00421012
12662 3.34412 0.00420234
12339.1 3.61107 0.00507418
47320.2 14.7354 0.0085069
50983.6 25.6601 0.0215593
2024.1 0.860092 0.00367238
5430.51 2.49848 0.00528669
5198.3 4.51719 0.00970403
6876.45 7.03371 0.00229145
320.175 0.0430883 0.00195168
14.1538 0.349418 0.00189394
8117.85 9.44362 0.00706908
1863.78 1.76246 0.00673496
606.585 0.738864 2.08449e-05
11070.8 17.2819 0.0339935
3728.63 8.92189 0.0290749
938.921 1.37479 0.000876205
3356.09 6.40291 0.0127304
607.075 2.26484 0.00272786
335.45 0.441928 0.000669127
460.646 2.49282 0.00550009
3164.19 8.1152 0.029367
1404.75 3.72931 0.0208487
158.668 0.411707 9.80498e-05
592.032 1.52838 0.011878
4522.37 17.4663 0.0925702
2380.24 12.9674 0.0780068
96.7663 0.0832493 0.00147567
500.185 2.34263 0.0210901
8962.88 53.008 0.352299
529.672 4.75745 0.0430025
235.223 1.65237 0.00495763
3474.92 20.0404 0.149694
131.692 0.545772 0.0102154
646.483 6.96604 0.0555458
442.954 3.38132 0.0418162
3089.35 22.1962 0.197998
358.313 4.46334 0.04559
1398.18 14.5375 0.111804
663.079 5.09106 0.0392837
1347.31 17.0911 0.173433
185.395 1.50142 0.00931312
2141.07 21.7836 0.270214
182.661 1.13349 0.0196276
34.986 1.20157 0.0196268
495.061 4.43049 0.0435194
155.76 1.61962 0.0313878
622.625 6.22029 0.0947623
176.242 2.84453 0.0582088
1040.42 12.0789 0.172476
713.251 11.099 0.135158
473.96 9.52726 0.133496
1114.21 22.0017 0.374849
1015.75 13.3782 0.230998
302.314 2.9498 0.0458146
1777.96 26.5543 0.472883
3247.9 57.8664 1.13388
279.587 6.24054 0.157911
227.297 5.73179 0.15425
217.052 2.79519 0.0382714
387.501 6.2264 0.139518
342.713 9.57781 0.205127
375.964 6.26402 0.12125
270.518 6.15676 0.170129
11.5465 0.376829 0.00473956
290.124 5.31241 0.149258
257.789 4.86784 0.116293
75.259 2.89919 0.0610999
130.721 2.47953 0.0847197
60.8953 2.63672 0.0623655
346.237 9.42096 0.234661
344.765 8.002 0.240034
358.99 8.75781 0.291349
221.368 6.2585 0.250742
581.217 19.5892 0.533873
421.299 17.1405 0.54391
324.008 7.44364 0.239785
120.064 6.05686 0.237209
904.706 25.3225 0.834792
141.5 4.11242 0.136359
1.87899 0.216426 0.00640925
31.3069 0.7441 0.0423807
195.334 6.37076 0.260437
180.424 7.51984 0.236366
229.47 10.2951 0.399746
32.9321 2.09351 0.0948337
33.6067 1.03121 0.0614425
441.305 21.491 0.90637
19.0135 1.29331 0.0472321
30.2362 0.539115 0.0289813
196.588 11.2112 0.505532
222.936 10.0127 0.516693
36.4999 0.651999 0.0331025
102.64 3.39538 0.176718
35.0411 2.14415 0.11875
5.40347 0.463915 0.00956482
437.479 24.0998 1.21758
129.982 8.71733 0.541594
134.728 10.5051 0.630725
92.7149 5.16959 0.404532
438.172 22.1222 0.974609
194.119 15.1489 0.903483
104.326 3.16322 0.159948
54.4112 1.5768 0.0971757
83.0274 2.96395 0.111032
462.671 27.6856 1.53961
291.539 19.1419 1.19161
2.29727 0.221097 0.0290045
224.615 13.0776 0.697157
23.7876 3.39696 0.256828
35.8741 2.21097 0.137722
323.806 15.8759 0.944894
6.71641 0.209307 0.0274694
34.4009 1.16363 0.0920606
223.946 11.8413 0.759552
307.851 20.8545 1.45566
36.0891 2.66456 0.140719
122.368 11.232 0.875146
23.5312 0.828148 0.0238973
30.3232 1.30022 0.0592601
26.6724 0.881123 0.0608254
58.8195 3.76522 0.235234
48.0025 2.32994 0.188954
79.8392 7.13324 0.754798
294.263 20.6932 1.37139
47.3977 4.91104 0.349469
251.718 19.4771 1.57052
15.809 0.907522 0.114945
243.927 22.8832 1.88384
42.1408 4.03589 0.34036
118.042 12.2767 1.0957
44.8884 1.92642 0.133776
95.561 7.25088 0.716682
150.326 17.5213 1.67947
148.249 10.3073 0.822904
28.7722 2.19648 0.256168
110.3 13.495 1.26405
11.0541 0.132188 0.00223242
101.763 9.02681 0.864559
11.788 1.18274 0.163336
232.812 19.5664 1.96795
42.1343 5.1931 0.63661
24.6114 1.33928 0.14682
242.178 25.9697 3.25883
81.1289 8.39226 0.698944
261.179 23.476 2.11159
221.95 24.416 2.37148
165.601 20.6788 2.42196
93.0386 13.2987 2.0484
260.646 31.898 3.38157
252.432 26.9518 2.6537
73.1199 7.42147 1.00357
258.077 31.2013 3.12985
209.798 31.7275 3.91822
34.0374 7.18316 1.11075
17.7016 3.47197 0.493215
5.45003 2.56322 0.487394
118.922 10.8886 1.2756
55.5006 8.99741 1.08882
1.73275 1.30737 0.236338
63.7913 9.39653 1.36501
106.55 13.3477 1.80891
129.878 14.6375 1.64528
155.739 21.935 3.23339
0.759593 0.158041 0.105672
55.4736 5.92394 0.609334
41.4513 7.22164 1.07467
9.30081 1.76208 0.445213
259.412 36.5779 5.02698
72.988 7.54745 1.06062
68.1758 14.3187 2.31932
70.929 7.47627 1.04496
382.298 56.0217 8.28674
130.279 16.1666 2.48915
44.9054 6.21723 1.23625
37.4844 3.8455 0.449399
14.3385 1.51825 0.291954
11.9481 1.56192 0.390532
6.23271 1.11995 0.110367
74.4441 11.9604 1.64171
46.6972 10.1143 1.65228
23.7931 3.06311 0.394107
15.1502 4.23943 0.719496
2.93059 1.56832 0.364911
19.7462 1.63124 0.21946
34.5432 4.2941 0.78612
27.1571 6.13906 1.03838
57.1353 8.42866 1.68177
73.6514 14.5327 2.19349
30.3758 8.33963 1.69218
1.75631 0.0559062 0.0392647
10.06 2.78774 0.667003
0.606467 0.590715 0.214523
20.0414 2.83084 0.667555
33.22 4.79372 0.718252
66.1149 9.061 1.58571
0.768072 0.0477642 0.0755559
22.6697 3.17888 0.389815
235.783 44.2099 8.63338
12.9091 3.61359 0.689787
14.3551 5.74018 1.45378
76.7599 10.9861 1.78492
41.9614 6.61708 1.4008
26.222 5.80687 1.24649
27.5272 4.831 0.907477
4.18416 1.06589 0.226521
21.027 3.13474 0.67646
21.4106 6.52973 1.38728
1.61181 2.10883 0.784934
31.637 2.85131 0.303388
139.643 28.0274 6.13353
18.0061 3.72189 0.680527
179.08 37.1431 8.49726
14.5163 3.21562 0.472014
16.7737 2.58517 0.531168
29.0036 5.06138 1.19075
17.2669 3.64157 1.10236
20.4371 5.04273 1.45886
1.15196 0.55527 0.392949
2.48665 0.352071 0.0271143
10.741 2.62784 0.369752
44.9423 13.3164 2.92462
2.94231 1.21393 0.508653
43.5791 9.10759 2.1462
25.0845 7.11117 1.35345
24.1142 8.6174 2.11519
21.6049 9.53376 2.90065
7.20974 1.79937 0.708482
30.8845 3.71233 0.523953
35.3637 7.41328 2.00502
30.6635 10.0394 2.72517
73.0873 13.9109 3.05998
59.5209 15.9026 5.01801
15.7202 4.58787 0.990981
21.5343 3.54104 0.798859
131.59 40.7765 13.2544
224.085 58.7266 13.3325
3.75267 2.2551 0.851396
34.2147 15.0952 5.03127
42.9231 7.9214 1.84282
46.4709 8.19354 1.73385
93.9217 24.6561 7.33978
19.0634 6.1506 1.53961
28.0575 6.1791 1.88321
19.1111 5.62704 1.38891
167.397 50.5275 16.1524
10.4667 4.94663 2.45772
99.1858 25.2269 6.33386
36.1989 11.4903 2.64136
3.20602 2.55945 0.915387
13.8903 2.20563 0.462697
32.2729 10.4864 3.8887
29.7624 8.9922 2.36122
18.3394 5.40702 2.32613
21.7973 6.38617 2.20348
93.7201 30.7275 8.13103
7.75205 3.06587 0.836391
3.43552 2.44719 0.834256
38.4216 16.0827 5.79662
50.1716 14.5473 4.50493
36.0601 10.2928 3.26532
1.70262 0.630941 0.15587
23.0657 8.1621 1.90375
16.7198 8.19254 2.53744
51.6471 25.1971 9.90247
40.4204 10.5431 3.05458
17.385 9.10135 3.70136
22.4245 6.48998 2.75578
49.308 12.5596 3.51782
3.02375 1.77793 0.498781
12.3761 6.61894 3.41777
31.6271 6.90113 1.14746
34.2163 13.2696 3.92487
46.0145 19.1376 7.01772
0.523449 2.54603 1.93422
61.1216 15.8669 4.6973
39.7109 16.8499 6.17261
32.8316 11.6696 4.80821
5.14019 4.63787 3.09768
16.3466 3.97471 0.764928
1.6391 1.30117 0.477959
6.02689 4.57966 2.00319
6.28753 2.31303 0.833347
21.3676 10.8822 5.07006
6.15232 2.13613 0.883888
49.963 20.9776 8.20863
31.6369 14.6926 6.83236
25.619 6.36239 1.89659
49.4206 14.3126 4.50331
7.4464 1.55569 0.564864
30.9888 10.7175 4.42676
3.45173 1.28279 0.246994
31.1842 17.707 9.38543
61.4476 20.8037 6.37804
0.197353 0.798272 0.632445
18.2205 5.15461 1.64206
1.67956 1.17129 0.637888
51.5943 23.705 11.074
15.1864 3.95906 2.36016
41.7676 12.7101 3.44191
14.4746 4.68091 1.71222
18.9875 9.55457 4.58829
6.38913 1.47986 0.520453
3.49287 1.73444 1.01178
13.4873 5.74785 3.46625
19.1807 8.66486 2.71713
1.94805 2.77607 1.73803
23.0807 7.46588 3.18115
3.84001 1.19602 0.451566
22.4663 13.9868 6.34344
9.33679 3.84926 1.9622
14.128 3.16981 0.860584
7.10161 1.02461 0.092542
56.2671 24.7849 11.2936
1.98019 1.0006 1.06544
5.64396 1.52739 0.567229
2.48618 0.85676 0.522764
7.06176 5.47767 4.37116
64.3271 30.2048 13.5386
19.6986 5.97616 2.08993
1.94521 0.521011 0.240744
14.8257 7.3617 4.53243
3.58684 1.86802 0.676787
9.1295 3.04555 0.729533
38.7649 22.9923 12.2339
55.9003 27.7818 15.1742
10.9654 14.2394 15.1968
83.1506 29.7154 7.70578
29.2522 21.0173 11.3058
30.2123 10.0188 4.27473
19.1958 8.66247 2.83892
23.7174 13.5612 7.79325
2.93229 1.54494 0.563151
4.22373 2.5877 1.30779
30.914 19.055 9.29188
22.7759 15.654 11.226
26.8502 9.62928 3.27626
24.2442 15.8688 11.5579
54.0958 25.6281 12.0701
13.467 6.59054 3.2164
7.80426 4.19803 1.62732
11.1991 4.59283 1.33011
6.80076 5.29252 2.62073
7.08791 4.25407 2.44416
71.2524 36.798 17.6666
12.9476 10.7995 6.14977
4.96096 1.05969 0.446879
14.1185 8.01552 4.71763
8.38396 4.3651 1.02383
40.9322 28.2427 15.5872
5.26766 7.81153 6.25633
3.71103 0.773443 0.0842287
17.4658 15.3673 9.17144
1.77037 2.25725 2.39035
6.37305 7.10518 5.25523
8.02377 2.09891 0.933784
9.36754 10.6422 7.59321
20.2984 13.7106 10.0675
9.11967 2.57697 2.0567
2.22418 0.0437123 0.230013
3.63545 2.48494 1.86112
21.3026 13.3919 10.9135
27.5446 9.27129 1.8923
26.5671 14.5718 7.11817
10.5023 10.0232 7.22607
7.34262 5.70585 3.39367
6.16698 5.96487 6.38386
46.3107 23.7817 11.2615
3.96949 3.91301 3.55548
0.0852135 1.30789 2.09484
12.9812 5.0001 1.87101
3.68778 3.40197 3.1848
17.6947 10.3157 5.25494
2.80253 4.8592 4.83182
18.3368 9.37636 6.32245
0.905493 0.606189 0.452373
0.624366 0.36119 0.87559
1.29936 0.304856 0.794648
3.29949 1.18978 1.34392
7.08438 2.94708 0.370431
7.87612 4.79259 1.95816
17.8502 14.9062 8.25793
1.5231 2.64187 3.85567
64.0339 48.3686 30.8046
6.47313 3.19859 1.80433
5.54176 6.87154 5.76327
1.29903 0.0184122 0.230047
11.6629 15.6954 18.0323
83.5073 53.464 30.9045
1.83472 0.271478 1.34627
14.4831 6.68471 4.09703
3.81991 4.01968 3.39065
21.4101 12.3119 6.41502
7.03381 10.6326 11.4001
15.8387 4.93937 1.35839
19.1319 12.7065 9.92083
9.50923 7.29273 4.05356
2.58661 1.14601 1.14833
15.4329 15.6716 12.9535
7.1279 1.27173 0.0351939
13.819 10.673 7.2786
13.4035 8.94902 7.12027
2.3619 0.17899 0.330308
5.13931 2.31296 2.3195
8.87814 4.81936 2.0118
5.1794 2.09604 0.789757
6.23354 4.03014 2.60531
1.804 2.011 1.38144
15.6922 15.8895 15.7709
7.46326 2.2609 0.239976
3.09698 2.74706 4.63682
31.7911 26.3567 17.1093
4.5529 1.8042 1.29302
1.58853 0.472542 0.0297588
9.14245 8.15499 5.96282
1.01298 1.9431 3.39368
8.13845 7.10346 4.67426
4.75652 2.44104 1.52467
3.34494 5.83927 6.03677
10.6257 6.4271 4.43226
4.31049 2.97864 3.40389
28.5305 21.6916 15.8309
0.408624 2.75386 5.56082
16.0485 9.98058 4.71382
4.35623 3.88875 3.4336
3.29231 5.48708 5.23083
2.20711 1.29699 1.29466
3.65212 0.965638 0.213187
2.7247 1.63907 1.4307
1.11334 1.55789 1.32996
4.894 4.51341 2.28826
19.7353 26.4745 25.7909
7.42815 1.18343 0.908814
2.81352 4.06044 7.39922
36.9451 22.5238 12.8072
2.78589 5.3677 6.30631
20.7408 16.6556 15.3901
18.1045 21.3506 19.1477
9.51748 6.87989 7.41406
1.37541 7.55209 17.4203
40.6664 19.7488 7.78032
15.326 9.6031 6.00078
9.60464 9.23948 10.2783
1.55544 1.41338 3.11388
13.5163 10.6099 8.67392
22.3411 11.4447 5.05305
24.7959 19.1249 14.63
12.5232 8.42299 4.74381
16.5289 16.0115 12.916
7.57904 12.7956 18.5362
30.6982 34.9563 35.6396
26.887 16.9406 10.7552
3.53912 9.36294 17.88
27.5979 15.9598 7.48903
32.1828 37.9662 37.9417
21.6919 17.2541 10.1676
13.7524 23.05 26.4815
19.7518 10.4987 5.65682
1.70761 2.23494 1.29265
5.74539 8.70322 8.04959
7.84495 9.63263 9.93282
1.14234 5.37507 10.3917
28.3364 33.9896 38.5801
42.6461 24.0648 12.7309
2.01366 3.00702 4.07112
5.88945 3.85998 2.63909
10.3786 8.82886 8.13894
6.70861 8.15098 12.638
7.40992 2.29922 0.091987
20.1391 18.6657 14.3045
3.42669 6.65071 9.11184
8.9755 8.51729 8.22554
13.3317 12.42 7.96128
2.97146 4.59552 5.66553
2.66983 3.02805 6.88938
36.5277 40.9293 32.874
0.374266 4.06443 6.74157
5.83622 13.7872 23.715
17.8094 7.92337 2.3193
4.88258 6.53445 7.83685
4.59942 3.28137 3.98382
4.60527 1.9306 1.46777
28.1403 34.3639 40.7686
13.3228 6.00965 2.71775
20.1822 19.4696 22.4852
20.7869 15.697 7.88493
9.39903 13.6499 11.7613
15.9124 19.8903 19.822
3.68388 5.18663 8.28047
5.96942 3.5664 2.69058
9.80856 17.3554 27.8318
15.7654 13.1715 9.87377
4.33675 0.964672 0.0240707
18.5843 19.8386 19.6909
4.23171 12.219 23.7702
5.58097 1.20187 2.14817
7.0768 6.08451 5.59269
26.7409 33.2736 31.98
13.253 13.9181 16.253
11.4597 10.572 14.4532
7.09906 3.00844 0.0490232
29.8159 37.8887 30.7288
1.27478 6.80163 9.38075
1.36129 9.72127 19.0829
8.19199 1.84874 0.0474098
4.27388 4.49575 5.51073
5.87792 11.1728 14.516
6.34092 8.54752 15.5845
19.3274 12.2406 7.07992
1.62208 2.92456 4.0592
1.29836 0.172051 1.05996
10.6371 11.5184 10.7925
1.07066 2.93224 3.95241
0.946609 1.59549 1.25514
3.15694 8.92727 12.511
1.58413 1.70716 6.86997
21.5532 23.4161 21.5563
1.8784 8.9124 21.874
16.9593 18.6366 25.209
26.6731 19.7687 15.2518
7.38259 7.69752 8.56278
6.8456 5.32025 3.00316
3.62011 6.67729 8.80213
4.83675 7.63521 13.0576
4.36397 5.03676 13.2117
17.4361 14.0883 11.0507
2.55601 6.58799 13.897
7.53496 5.33051 5.56234
11.8997 7.48718 4.47921
9.47043 10.0858 10.3367
7.73776 12.6582 16.3851
13.4574 16.1472 20.1788
2.57827 1.86736 7.35136
13.3983 12.6979 10.3029
9.92808 13.1333 9.01173
1.82437 5.52268 6.61436
3.38213 9.97191 16.0522
9.09734 15.0037 27.5536
28.5891 26.3612 23.1277
0.101452 3.5027 15.0344
28.6613 32.9739 28.5885
0.0342401 1.23062 3.46347
0.772306 1.12111 1.51391
0.396746 2.72257 6.05077
3.15725 1.79038 2.10247
0.962087 0.620174 0.243481
3.55912 10.8882 16.9961
0.418794 7.48376 28.4522
25.7324 16.5372 10.4428
7.26476 7.45551 12.4926
15.9268 10.0434 5.42028
10.2848 8.17197 3.76506
6.50977 6.54594 4.4576
8.76655 13.0282 14.9889
0.718231 2.71606 5.61251
0.0489831 0.0318869 0.346471
0.20509 0.468865 1.47085
0.495262 1.1911 1.16872
1.30064 5.4553 12.2047
16.8893 19.5737 24.1544
4.22189 1.55826 0.249806
14.5974 27.72 56.5295
44.8276 53.0088 49.692
7.6221 13.5007 18.2505
11.3504 18.6682 28.6849
6.26165 2.31351 0.811974
1.03923 4.47827 10.2223
6.25264 5.98589 12.8805
13.1641 6.54245 0.293905
30.506 50.286 70.9244
12.0211 14.2312 19.428
18.0556 16.4438 13.1832
8.46014 12.5386 14.7352
6.13939 15.0874 29.3919
2.24215 0.234632 5.30306
13.1335 16.5612 14.9707
14.0987 21.2502 27.9461
8.16255 17.146 35.7399
13.7609 19.2976 27.0483
8.71818 9.77663 14.064
1.16858 0.18975 1.29356
0.57683 0.338617 3.11189
4.29233 4.30344 1.47368
2.08539 3.03203 1.62553
3.10284 4.27562 3.74504
5.23042 13.9251 21.6988
10.4779 12.8992 22.4075
16.4089 27.3628 33.0492
6.85106 6.43781 8.15257
0.169483 1.28463 4.46207
2.31492 9.81942 33.7496
30.3847 35.5433 22.0298
12.6935 39.7868 65.5596
5.30252 3.81582 12.311
5.81695 2.99544 3.73416
1.49744 0.000189446 1.97786
4.93854 2.57535 0.543343
2.46963 1.951 1.17245
2.58521 4.73275 10.9639
9.03792 15.5501 20.3925
2.48468 4.75408 8.26323
5.70324 9.00039 19.5502
11.5066 17.6983 24.18
9.7686 14.8613 26.1387
8.4912 6.19761 4.20393
16.2502 28.3372 44.9425
6.1768 7.35914 10.1269
11.5418 21.2765 40.1777
14.0304 18.7391 16.4496
0.533701 0.644831 2.92462
4.6567 10.874 17.56
5.18422 4.41055 4.35367
2.24847 6.6921 10.6509
1.18625 1.33101 1.18775
0.941078 7.1758 19.727
11.2356 9.78995 8.18665
0.921573 3.01914 8.8505
4.76174 7.44568 6.07732
0.510947 2.12228 2.81439
0.771532 5.40346 12.8082
1.69874 0.750663 4.1965
2.63926 5.66607 27.3145
28.3072 39.182 30.5036
2.15551 13.6497 26.4716
10.6628 26.8451 54.8849
13.9082 11.9338 12.2972
12.027 47.1265 111.21
21.3607 13.1462 15.279
7.6643 2.62466 5.10737
11.9317 14.7501 16.0289
2.7801 1.29784 7.58972
14.3716 16.8942 21.4777
8.10682 12.3764 21.256
9.9586 5.34487 0.371989
24.344 46.8961 73.3913
8.01615 8.29195 7.52546
2.90909 3.81314 6.82741
12.5904 27.6178 51.3743
6.73944 5.50715 2.06715
4.26036 16.9187 52.4208
33.0127 45.4071 46.2654
4.80307 10.2723 19.5082
0.0657503 1.58415 5.26496
2.42168 18.2484 69.4943
21.3691 17.18 5.36791
14.2045 30.2753 33.2344
0.321167 5.62006 12.6717
3.89192 19.9595 50.7893
3.36401 1.74699 25.3423
13.2026 4.83617 6.14684
23.5562 29.0722 26.4046
6.41753 13.515 17.752
1.35298 1.78478 5.91369
2.34595 4.06039 11.3821
5.29954 1.82462 6.20496
17.7033 19.6288 9.58873
16.8445 42.0796 74.0518
3.69117 4.1601 7.17697
0.601187 0.0408736 0.494026
2.6278 3.86479 5.74277
2.18305 2.66063 2.85431
9.12398 17.9872 26.038
1.46931 7.31501 20.5556
0.0249703 3.46437 25.4147
9.494 12.6172 10.9924
1.90726 2.15424 3.64353
0.639964 2.85553 10.9432
2.44341 2.28268 0.29852
0.82122 2.65957 9.70109
3.74179 4.46066 1.07995
2.75959 8.48174 9.30312
0.0703365 2.93312 7.46946
3.184 12.6945 34.2923
9.87064 7.28301 3.71141
1.49992 3.85395 10.0276
2.14204 4.81273 8.61954
3.38443 3.26992 3.27899
3.55522 9.43772 27.8653
7.88994 8.53275 2.80267
8.93485 31.48 57.6126
3.98316 1.14809 3.62649
0.59356 0.0462036 1.22094
0.0903105 1.46496 7.76729
2.44501 6.01235 17.0049
3.49116 0.974782 9.57618
11.6648 10.9209 4.41518
12.3429 30.5064 56.3719
2.86851 2.04766 3.85349
0.829397 1.9312 2.38051
2.47371 7.09804 18.8907
2.6786 1.81573 3.22921
1.95124 5.85071 10.6146
2.22667 0.904902 0.131013
2.27399 8.11046 30.6428
11.6372 14.3434 10.7204
1.4457 4.11742 2.92453
1.61341 9.24032 18.8648
1.51504 3.49743 18.2363
10.3332 15.6073 26.4208
5.58695 13.2153 32.7781
14.6164 34.2745 48.9168
0.519832 3.48602 25.042
7.80961 9.23703 19.7603
11.4053 15.7969 17.5901
0.886776 0.122921 0.546069
3.36066 17.5596 68.4772
33.3381 46.4179 46.2603
2.28016 12.5561 31.8066
1.20119 2.10253 23.1671
13.7727 19.8275 22.6782
2.00241 8.15939 28.3103
6.5162 5.76851 1.72254
1.88582 5.95888 17.6616
3.09053 4.38777 1.50756
0.633087 4.41568 8.4119
3.84393 23.0104 73.7224
12.5832 4.36888 11.8993
28.6504 59.4161 99.5093
7.23959 5.97187 6.46066
0.677985 1.60188 16.1182
17.9855 35.7539 45.6989
0.918229 2.00043 8.67866
6.43814 13.5452 25.4971
6.88899 10.4335 16.7409
1.50162 1.69426 4.57222
3.63404 4.69601 11.3519
15.0221 32.1049 56.7178
13.5236 30.2393 52.4904
1.12116 1.02879 4.23312
0.934933 2.95926 8.02427
0.053201 0.89311 6.29797
3.18846 7.02222 14.3138
2.53963 11.7128 37.0513
13.1587 19.0377 22.2656
5.78705 27.3804 93.4526
16.4487 21.8218 14.843
0.97627 11.5417 54.0212
23.3849 39.7063 48.0881
0.431244 5.45748 31.0242
5.7807 7.63323 6.5371
2.27183 8.85338 32.3857
15.3852 24.7031 28.8686
0.117713 1.45055 6.18003
7.25121 24.5888 59.0182
3.11806 0.821278 7.19473
14.9813 42.8387 86.2038
11.5525 42.0456 143.494
14.8943 5.77343 4.65725
7.30087 10.7407 3.81513
0.135774 2.04499 22.21
11.3514 15.9643 5.69588
3.6585 11.0676 6.32018
3.78236 20.9711 52.375
9.63613 30.0491 59.5407
4.1809 9.19619 24.5438
1.89809 0.525264 4.65419
0.683345 0.149328 4.84745
1.26997 6.08042 26.1298
6.19752 4.85903 4.28498
3.32801 3.91173 2.76894
0.939909 1.22527 7.97893
7.63798 19.1979 44.8751
10.01 26.1537 38.0509
0.862726 2.21806 10.7413
0.766475 2.53751 11.5725
1.23636 9.87062 62.5729
14.6191 7.3238 2.6492
10.9341 16.9097 17.4808
10.8919 28.3158 73.8643
27.9811 63.0645 90.4378
1.14279 1.87848 17.1604
14.4036 40.4399 60.2324
0.319896 7.8277 23.4855
2.06638 12.9061 45.8033
0.960325 1.19571 18.4787
0.885849 6.61798 53.1659
11.3318 11.6401 15.4654
13.6023 41.6003 94.1476
13.7916 13.7476 5.56702
4.70796 23.2508 76.2082
7.88154 7.24483 0.999701
5.19763 21.9928 41.8535
7.29174 30.0976 99.035
8.70047 10.1703 29.9334
4.41796 0.206415 11.3669
6.39547 4.38082 14.0608
9.62265 11.6728 1.32819
4.06031 5.89864 4.09311
20.9294 68.1763 123.387
0.539668 4.63864 38.5104
2.07347 3.18357 27.8144
4.32716 10.0433 60.7593
19.485 31.1628 24.5335
13.9486 53.4802 83.7894
2.70189 28.1245 133.159
27.1001 41.4191 68.5992
8.70928 12.9235 17.2974
0.825088 10.9105 60.5844
12.4531 18.6253 19.5817
2.41718 5.22179 16.5397
2.22713 2.36499 2.29079
2.04548 3.63496 17.5262
9.13023 21.417 22.2296
1.42552 21.0223 95.6916
16.8137 29.7935 51.4095
10.7083 35.6036 77.5585
6.13562 4.60931 17.5272
5.79171 11.5201 34.9391
19.2236 59.8687 141.607
8.76346 10.7511 23.1568
3.47469 3.13948 1.41814
0.0678523 1.82954 22.9241
6.60538 15.9515 29.5373
8.56785 24.8672 47.1075
2.86861 2.93362 5.81829
1.812 9.13046 27.7399
3.32858 1.98266 0.241462
0.480854 0.85395 0.628221
0.280704 3.33871 11.1269
1.51988 6.30647 38.6161
8.50483 11.0752 25.8079
8.12542 17.8262 15.2313
0.603596 10.2482 40.5907
4.9672 6.07977 3.95863
0.464866 10.2443 61.3134
22.6828 61.4485 149.417
12.217 17.3963 32.6218
6.85366 12.2508 25.2149
8.73763 16.4143 22.6007
5.31246 21.0645 43.7639
1.89154 11.0792 47.7208
7.58483 12.2888 16.6878
1.66604 2.83447 14.83
3.95177 9.30951 12.3652
1.55328 3.20471 6.43876
0.704549 2.04607 15.033
7.64054 38.8492 122.026
19.0806 32.9044 62.1642
5.71469 9.29606 16.1807
4.09975 13.5646 34.0946
2.09247 1.34344 1.61921
0.522578 7.2005 40.8081
6.68417 6.79226 0.871804
1.78461 6.81507 20.3925
3.29249 16.4432 60.6472
12.4742 20.4236 25.5545
0.343844 0.230014 0.222181
0.738184 1.33837 0.221098
1.75019 10.6192 41.7342
5.75938 11.1792 17.4308
1.41098 0.211521 2.90872
2.75546 3.65583 0.863363
2.06324 5.63081 5.2451
1.04854 6.73972 19.5555
0.45549 0.60415 4.27553
5.9857 27.873 98.7817
12.0071 21.6965 23.7547
0.455362 5.28047 30.8798
5.59603 21.1797 73.3011
12.9032 48.2183 115.267
7.73995 10.0879 48.1589
5.70766 5.20452 22.3317
3.31239 3.40796 38.537
13.2076 29.8372 23.7757
0.173234 7.60221 42.4149
12.6841 30.2464 45.9394
0.0730255 4.68479 47.8967
7.64551 17.0565 27.5447
3.29492 5.19582 9.1806
5.23961 16.9655 40.7808
1.96724 3.29715 29.9167
11.0892 35.4486 43.7643
3.03726 22.3843 74.4583
2.37538 0.792825 24.1015
4.65139 8.20599 19.357
5.55622 28.4022 89.8317
6.72031 8.47105 40.2494
3.35362 4.07708 42.8184
11.1502 16.4889 30.9813
11.0634 37.3693 77.5878
10.1517 40.0035 94.0145
7.81499 12.2171 44.9722
6.20744 10.7423 2.43023
1.06243 4.51588 4.27352
7.79985 51.4944 133.316
9.00506 8.18907 14.3262
5.33972 43.1033 145.248
10.8795 5.14936 29.2169
10.1276 20.5691 25.5643
0.834095 2.75798 22.0545
5.72407 25.517 55.8083
2.47526 0.0538239 10.5775
2.62135 1.64002 0.114458
0.904141 5.65198 25.1411
3.46927 5.44022 19.7608
6.00439 14.52 38.3631
6.30051 22.7945 52.0282
2.98728 3.42759 3.76699
0.787185 7.72725 26.2782
2.88287 6.59786 39.2864
11.4571 31.2407 64.0107
2.37319 3.95875 9.70871
2.89324 12.5315 34.9487
0.763773 7.65449 61.9828
8.55418 8.53741 20.9756
3.53854 3.62776 4.55063
2.98376 3.17248 7.8441
8.00033 29.1124 55.7816
2.07574 11.1352 57.6179
4.61052 3.4518 6.05097
6.86379 37.4584 86.713
4.41425 0.996559 0.685096
1.40986 6.34759 22.0358
1.08695 0.568173 6.06443
1.21532 7.00883 56.2988
9.25722 26.3972 43.4253
2.85538 2.18124 10.8433
2.12526 2.48824 5.62028
5.27184 26.3385 48.6952
2.53846 5.6104 15.1306
0.189538 0.45069 5.58226
1.03858 9.9772 30.8461
3.42363 14.8474 76.0788
7.02731 7.1325 7.04185
0.975422 3.91145 20.5397
4.93237 14.2024 21.5166
2.69921 16.4142 34.3036
2.31054 12.7328 47.9144
3.80992 4.14286 14.7433
0.909705 2.772 6.68377
0.40996 9.86736 53.9179
2.91763 1.05582 46.42
7.35043 5.06765 22.138
7.50784 10.3601 24.8166
13.4172 45.9868 84.0924
5.82353 25.8202 95.9935
6.16986 6.18397 0.177338
0.933778 10.1052 40.225
5.23576 9.00728 8.8719
0.264587 4.50197 32.0881
3.59742 12.2131 25.5296
1.23155 0.875101 10.1285
1.511 5.35358 40.1429
5.08382 3.62785 0.498422
0.242076 7.85514 103.341
17.5482 24.4422 0.498342
5.93144 35.4159 74.2494
2.74077 1.30093 3.72954
2.41394 15.2106 56.0158
5.43134 4.52104 0.328903
3.19492 14.3475 33.1191
1.38967 3.15877 7.23773
1.08628 5.86778 24.5723
1.60413 1.93076 2.066
0.0634953 0.365511 1.06621
0.0852359 0.569456 6.18435
0.891489 4.12558 36.3795
7.42217 12.5922 16.8632
5.98193 22.1579 36.8751
0.161397 1.12768 16.8811
3.40255 8.88039 23.7522
5.51116 24.5641 46.5096
4.90863 46.5461 170.055
6.85662 0.328024 57.6135
8.9043 11.8183 0.478546
2.23798 17.1441 61.0257
8.07297 18.5234 11.7289
1.90987 29.0796 102.171
7.57736 10.7006 27.0172
2.30705 1.76413 1.85632
0.121162 7.76663 41.681
3.88373 5.6335 29.6264
3.19571 4.08489 43.001
7.53751 13.866 12.1595
0.399955 6.08233 59.0106
9.77827 15.9098 42.5609
10.3464 38.7272 51.2543
0.25643 2.98586 13.4238
0.377086 5.53391 66.1505
10.8128 29.9922 51.9915
1.60297 0.12055 2.96316
0.745888 1.33482 17.7375
3.61479 12.281 12.4519
0.00421576 3.66655 15.8511
0.720392 0.513125 7.78672
1.3504 14.9658 89.7379
8.82923 5.41402 29.1548
7.89514 14.6353 10.604
2.3866 9.97305 43.2452
6.33169 14.1155 19.3686
1.99826 2.57658 81.2283
27.7983 110.039 203.188
4.38086 1.57767 1.51748
0.621931 9.72836 35.7936
2.6452 7.07873 14.3595
0.148964 0.909818 2.16736
0.454976 6.21625 34.7104
2.92498 11.0616 34.0061
6.66246 31.4747 98.8626
4.11114 2.71536 0.539603
0.0183371 1.37319 9.09795
0.405278 0.425102 14.983
2.56921 16.2086 74.4617
11.1171 31.9527 64.6406
1.56035 0.129547 9.55813
1.31796 9.24039 56.4791
10.7667 39.8448 109.597
4.76901 2.92402 32.008
8.05336 45.4009 128.782
10.7445 16.4062 10.653
3.99912 34.0186 100.251
3.01135 2.4827 62.9096
8.62656 9.90508 2.65729
2.76605 13.8625 38.442
2.77989 1.67544 17.7718
9.25064 44.1315 78.94
1.07299 1.47938 1.11404
1.81819 30.5577 148.417
8.23459 10.3091 16.0236
0.646034 0.152971 12.1006
1.73588 2.66532 3.38431
0.587225 2.54367 6.28031
2.68082 14.6947 29.707
1.18702 11.5459 42.1756
0.582678 4.49423 49.7444
2.54699 0.865853 6.03909
0.520347 1.62892 4.4156
1.66453 10.7593 36.527
2.07148 9.37409 27.9863
0.835659 23.4897 166.169
10.2067 26.2344 243.293
26.2213 40.8466 3.77376
2.77797 28.2784 98.1816
7.06492 10.2704 0.748135
1.74552 19.0711 59.7864
5.44135 13.0793 20.5979
0.520309 0.91341 9.72362
1.7063 8.10908 20.0814
1.55454 7.02157 36.0566
5.00893 17.9361 62.2522
5.11827 26.3452 94.4729
7.83836 10.9475 11.9833
0.221049 0.283601 8.92023
1.26563 6.50278 26.0619
2.43033 6.7766 2.9237
0.544628 10.6604 31.6161
1.74604 1.39527 10.8183
2.12239 10.3529 55.2288
5.50629 21.8286 73.5061
5.47257 8.39375 81.5052
16.0888 53.5261 59.9152
0.321456 19.3951 121.615
5.81626 2.99975 22.0254
2.20112 3.58543 67.3472
9.66432 40.2295 83.8412
4.99328 2.54833 31.3964
6.32987 16.0519 4.35466
2.10979 28.282 85.7151
3.44884 3.13308 65.6907
13.76 51.8268 64.9666
0.31887 20.3952 132.21
7.40446 14.1674 32.188
0.688756 14.3316 141.442
8.02242 1.88424 72.6408
8.86785 18.2995 103.55
15.7726 53.4531 33.638
0.388955 14.5268 87.4578
9.72703 18.0021 0.251974
4.24186 53.4519 161.782
5.41189 3.18232 42.1574
5.36221 28.3429 147.704
7.91089 4.45204 113.836
16.8658 52.4804 22.065
0.103819 17.7275 66.5624
4.39816 6.26665 2.45714
1.12262 20.1827 64.0156
4.02761 5.49782 28.2686
3.14692 15.0786 84.4742
10.1965 56.8947 160.814
8.99369 4.26921 15.194
3.7162 15.4071 17.8556
0.398309 15.6426 94.7991
4.52082 2.17375 80.2456
7.95802 7.65643 25.346
7.57626 42.3868 59.8007
1.31922 15.7288 136.082
13.9178 33.9036 20.5808
0.0577143 13.3009 64.7955
2.52551 2.42434 73.213
8.01341 15.2713 8.43075
2.08205 8.39727 15.3371
3.2049 28.9075 42.3704
0.661222 5.79917 47.9961
4.6395 9.7224 26.3565
1.32762 5.83678 21.2115
2.26849 14.1766 19.7665
0.396665 2.26564 8.2107
0.358371 1.91048 1.43037
0.171899 16.5353 81.159
5.35581 5.62929 14.9746
0.898348 0.115343 3.72918
0.380431 8.04338 35.0564
1.69806 2.02692 31.6884
2.42125 9.38807 119.803
11.4733 13.6964 23.5743
3.31526 3.88872 40.4843
7.35819 19.1763 5.08853
0.481549 8.22067 32.3455
2.04793 12.7582 58.7673
5.97499 15.7899 57.7492
5.31315 16.2855 21.8167
1.31466 3.81523 30.4683
3.61554 12.3541 0.715922
2.03178 46.922 211.08
15.3078 32.6487 73.1155
1.75983 7.80715 183.544
17.7397 23.8904 1.03438
2.94184 22.9325 63.7359
5.20831 12.8915 12.6468
0.0510013 7.23997 163.462
22.4609 79.4821 99.4377
2.37376 15.9849 45.9059
1.36182 4.84863 33.4205
1.45699 5.0454 29.033
2.66876 11.1005 68.1874
9.13142 43.3413 94.5004
3.95807 18.8926 96.4941
4.23525 1.28128 7.60656
0.444794 0.751181 5.75027
0.448912 2.27753 21.4525
1.16708 1.70574 3.20183
0.681536 14.7444 101.341
10.8435 32.4798 39.7766
0.346335 14.6117 133.934
8.07322 7.19409 13.5554
1.37033 2.41761 13.7378
3.6348 39.0771 144.312
8.34034 6.43143 23.9847
2.43217 7.07796 2.97354
0.94625 17.8794 57.941
3.70005 1.86373 8.96209
2.68398 22.1448 75.9429
2.63306 2.18139 77.5449
7.89258 29.2889 33.223
1.64115 8.19468 44.7043
3.8474 5.32499 4.6564
0.272365 2.89526 36.8554
4.25047 48.8854 267.248
20.9999 31.3965 3.9985
1.33065 17.0992 25.1452
0.607168 30.2268 271.464
19.0544 37.4692 14.6931
0.290655 5.37221 43.788
5.52946 24.8159 70.4801
3.83112 27.0483 125.454
7.71832 4.28028 22.4678
3.59147 25.6722 73.1646
5.23099 15.4514 67.8493
4.33483 6.6638 15.6079
2.53087 15.834 62.6433
6.39181 13.5253 2.33367
3.70875 60.9708 198.447
8.57345 4.16606 40.5182
3.29807 10.5769 36.4498
2.35659 29.0216 223.064
14.0982 30.441 154.314
10.4824 16.6805 33.9811
3.35455 8.46366 59.4266
6.31051 32.8927 71.5946
5.40161 13.7913 34.8392
3.09635 29.4262 100.136
7.46682 15.4194 33.0693
1.20543 1.94797 2.21517
0.654375 7.20183 55.6564
3.06609 2.30356 18.298
2.45104 14.4219 48.8801
5.90097 37.7552 56.8862
2.4743 13.7855 67.5044
3.42081 1.76014 37.7904
3.20135 8.12113 28.4506
1.96311 10.616 29.9204
1.97747 8.30687 24.9231
2.07771 1.8138 10.94
2.70113 21.0116 28.114
0.860487 10.2125 59.2525
2.77152 2.78632 44.5149
2.80439 5.03477 48.971
3.76468 11.2533 12.0476
1.13264 7.29118 19.6885
3.27486 38.9944 180.798
10.3658 17.4352 46.1605
4.30416 12.4381 21.8185
0.916747 2.01345 15.0483
0.920052 2.77284 15.7159
1.19366 5.56807 39.9605
2.6166 4.72791 6.66645
1.29406 16.6068 46.7466
2.92503 8.8448 6.76676
0.239554 2.0022 39.9277
3.16682 2.03707 66.768
10.1522 82.2827 130.189
4.70134 19.2343 93.8791
6.3768 28.0786 134.122
8.4055 5.023 7.30675
0.565153 3.77413 12.4342
0.937009 0.174769 7.80524
0.968276 0.611138 4.56845
1.00586 15.5497 86.4887
5.81992 9.41999 34.0813
3.12666 25.2556 25.1894
0.469098 12.1949 92.3039
6.59345 7.09867 21.0191
1.22692 0.944947 5.43281
0.784197 22.7219 124.89
8.86893 15.0244 25.9449
1.71228 0.045212 20.2141
2.85785 18.1197 55.7828
2.90568 2.66781 15.773
1.34524 7.9338 58.8564
4.13833 6.59529 193.252
19.9545 71.0146 100.487
2.96994 3.17082 78.193
6.98306 13.0058 4.06439
0.891376 2.35414 57.9542
7.07609 25.0366 23.3687
5.17799 66.7469 173.938
6.35495 6.73119 17.726
0.978723 11.028 45.6724
1.29276 5.04692 58.1079
2.46619 2.04004 97.3068
7.27971 23.3156 26.8764
1.18106 11.738 39.4933
2.81865 21.7249 181.846
10.1696 8.35897 157.521
15.7865 92.5943 125.222
5.73484 18.9394 102.054
7.23656 17.893 62.3783
3.54489 5.59763 32.8873
3.68627 17.5668 54.8413
2.79002 5.49562 0.816331
0.019317 10.704 92.9438
6.59699 9.64854 0.274649
0.0555982 0.0539088 10.4024
1.15055 4.21298 37.1638
2.6358 6.64947 28.1674
4.50047 56.9662 104.377
4.15982 4.8576 39.5797
2.81899 1.10195 19.6899
2.89421 23.3451 114.179
6.9189 44.4268 171.387
11.2784 17.6008 56.1596
3.07687 15.6622 76.2114
6.1171 23.3208 75.5069
4.43109 13.6242 51.2265
4.4649 16.4602 39.2279
2.14673 2.81322 5.43819
0.0313453 3.04138 21.2699
0.730775 14.4082 215.956
16.4062 45.6988 25.5186
0.51961 14.3769 147.176
12.3595 53.4487 152.012
7.26917 6.70842 11.6534
0.874106 0.198824 39.9378
3.122 10.7272 2.52935
0.516522 18.3234 36.6619
2.14255 13.9806 115.692
8.06549 13.1271 5.49091
1.54098 42.0235 110.92
5.65532 1.24277 13.9975
0.720891 30.4583 308.657
22.7025 33.4542 11.7416
0.979048 10.6664 13.4603
0.459184 28.4031 246.395
17.5316 21.1901 14.0679
1.83264 12.5296 47.838
5.19394 42.976 141.138
6.28247 7.16634 127.592
9.84428 34.1972 28.0286
2.3773 20.0027 56.6819
4.26129 10.4431 24.0584
3.70623 63.9561 273.638
14.0196 16.9387 109.821
8.70936 18.0562 2.75288
0.0255064 7.82682 74.9256
4.52848 20.2078 37.9143
2.70262 11.8311 42.1728
2.76529 3.66056 22.9903
1.25848 0.0578613 22.4994
1.79472 0.898199 31.4632
2.8504 15.3383 4.69056
0.0385791 18.2408 128.93
9.01691 9.40873 0.927007
0.437714 3.7579 12.2391
0.547132 1.57116 4.07951
0.437992 2.92759 30.4952
2.44543 1.64415 61.5316
6.19549 23.0715 24.4591
0.697488 2.79063 35.3668
3.14604 14.4056 109.828
10.1086 64.5341 270.101
16.6585 41.803 8.0393
0.0971044 34.0918 186.57
9.7632 20.0453 47.4196
3.99176 30.6707 161.129
8.36834 7.46472 6.68003
0.596126 20.9554 245.869
17.0377 59.674 102.912
5.41481 13.0497 6.82183
0.333454 3.6579 22.5831
1.77846 0.513457 1.05799
0.257754 1.63435 16.9353
0.911873 1.39573 4.41487
0.414953 10.6739 46.1912
3.25769 16.7354 129.992
9.54135 17.1067 4.29808
0.15075 6.83274 73.3508
4.73985 14.4406 68.9887
4.67876 63.5672 314.349
20.6098 12.1017 94.1763
10.1166 83.4624 125.501
5.86688 3.40916 13.1916
1.65943 23.7368 50.816
1.59043 10.7388 173.442
11.6364 43.6123 95.1638
4.72838 2.99843 17.9982
0.967846 9.53628 31.2132
1.78977 1.47367 13.9578
1.41131 3.23676 7.70388
0.70498 17.1764 105.807
6.81571 15.3904 4.07079
0.102401 24.0171 231.363
13.6978 44.8133 93.4969
6.05888 7.71595 3.93777
0.507344 1.46995 9.73363
1.29474 20.6546 141.409
9.60839 31.8042 62.8739
2.72935 4.09593 2.00738
0.132194 1.76393 12.074
0.820631 1.61524 27.7331
1.65018 3.99759 4.11064
0.242589 4.46527 61.21
3.75702 6.6096 19.2107
2.29475 39.9486 218.266
12.5172 36.3771 24.9734
1.41867 8.15635 112.423
8.72681 28.3277 74.6903
3.74454 11.9515 43.4919
3.20169 10.3743 33.8033
2.68987 13.3439 27.988
1.02604 2.28762 27.1912
1.12826 0.410824 21.3308
1.26193 13.0948 85.6415
6.90131 32.0227 70.1048
3.88053 39.53 271.04
14.956 24.7158 74.4262
4.27535 17.4363 69.3902
4.83131 12.3039 98.8716
5.73034 21.0374 9.75751
0.527304 8.44488 8.89102
0.649437 9.41828 3.19425
0.203708 13.0961 77.846
5.10736 0.262836 91.1213
6.94567 24.6735 1.03958
0.0541023 11.9235 40.9377
1.81114 14.5625 102.622
5.50764 16.1864 129.277
8.44002 53.3048 81.2628
5.08195 25.1037 103.87
6.64472 1.71639 29.2407
2.69006 11.6068 75.5135
4.64773 12.6228 25.7189
1.09704 2.10895 18.9787
1.03158 11.3436 1.18548
0.048618 11.4698 65.405
3.68592 0.898312 94.1098
6.21035 23.8385 9.41424
1.03592 33.6788 69.0601
3.74883 44.3101 142.419
9.3627 7.09318 31.444
1.63683 24.349 157.641
10.9243 15.5317 80.7749
4.7596 7.09638 6.75249
0.609874 6.22836 177.844
12.621 27.403 12.1948
0.68192 11.2384 2.24094
0.388403 12.9405 25.3707
1.39041 0.0937164 8.97255
0.382118 10.7997 104.125
7.83993 44.3747 156.85
8.93761 13.6727 4.44906
0.525722 12.0551 131.448
8.46394 21.5403 7.41492
0.229521 16.4238 62.2446
4.28155 14.2972 120.729
6.54937 17.9939 36.1645
2.33101 27.0267 23.1243
1.31897 45.8598 265.74
18.033 45.3636 156.654
9.73464 15.6432 118.849
8.73263 26.2448 19.606
1.66087 42.6998 225.007
12.7354 4.6453 161.866
9.5475 35.418 40.8755
2.37174 79.3509 270.852
17.8735 7.283 43.5796
3.58911 13.2797 32.4471
2.61893 10.1517 22.9234
0.985558 8.02409 76.504
5.67956 13.2577 17.2514
1.02461 3.45955 8.2562
0.478817 1.96121 4.22553
0.289442 1.4901 31.4777
1.57641 2.98179 19.8511
1.23122 14.0175 0.369478
0.0803545 20.3787 87.9067
6.34382 10.1057 120.797
8.12506 9.82791 23.7206
2.04683 42.0035 167.475
9.70116 16.8974 42.9081
2.07613 5.48535 3.53007
0.141222 11.1941 6.3463
0.575169 10.1246 54.6688
3.75193 2.82532 112.625
6.84843 11.5555 29.4109
2.18791 18.0195 19.4128
0.951955 1.9228 35.7375
1.85516 58.7475 165.445
11.2485 18.0598 174.793
12.2998 12.0103 18.3553
1.46531 11.6571 34.8344
1.58668 13.1421 81.4008
5.9629 27.1289 51.9941
2.81775 4.96675 30.9723
1.74729 63.1406 516.142
34.7671 0 0