# pn-170911/RbIIR-44-TWTF-1280-1959.psd
# Power spectrum* (dif=0,1,2) (really just |FT|^2)
# NOTE: only the first half! (symmetric)
# weeks: 1280-1959
# 10 clock-days, 0 excluded
# PSD: 1441
938.198 0.0928767 0.0205916
115658 3.86541 0.00558281
122536 2.17436 0.00594747
53980.6 1.46226 0.00582177
56265.3 2.03193 0.0059956
27669.9 1.04103 0.00593397
12088.2 0.56504 0.00544916
9084.42 0.574417 0.00539903
8010.86 0.736801 0.00603825
6492.31 0.925624 0.00696529
7574.64 1.14683 0.00716366
4321.29 1.23997 0.00757843
2464.09 0.350683 0.00524444
3478.34 0.706915 0.00581876
1977.07 0.824888 0.00478217
2431.69 0.735438 0.00808797
2271.84 1.15313 0.00782793
1690.13 0.988222 0.00563212
1476.16 1.19499 0.00839347
1449.55 0.89098 0.00775309
1562.72 1.36528 0.0067805
1249.22 0.577348 0.00607004
1313.04 1.35015 0.0100867
1202.74 1.44183 0.00722147
934.674 0.641833 0.00762345
1061.11 1.18568 0.0125279
618.249 1.20434 0.00910342
911.455 1.40466 0.00917318
866.73 2.24365 0.0132088
869.25 2.13069 0.0114864
764.731 1.42676 0.00968726
555.215 1.89088 0.0187089
429.099 1.73055 0.016943
825.77 3.65589 0.0237127
850.435 2.99451 0.0217636
361.814 1.41429 0.0175003
446.098 2.04127 0.0183888
460.018 2.44986 0.026336
426.597 1.73801 0.0195432
660.979 2.79321 0.0203574
469.55 3.09546 0.0281033
412.157 2.88619 0.0328967
445.138 2.0758 0.031185
355.615 2.96018 0.0318939
1226.89 7.07688 0.0737184
238.646 1.85465 0.0254435
386.425 2.82918 0.0363676
308.074 3.22035 0.0353372
868.027 7.03266 0.0906865
619.65 4.70101 0.0626111
566.133 5.99285 0.0845725
456.355 3.26324 0.0490442
681.579 5.04104 0.0753236
423.094 4.88142 0.0843051
682.3 7.84766 0.119585
659.377 6.04247 0.101066
374.139 4.49995 0.0772065
352.113 2.97956 0.0485892
316.44 3.54349 0.0710691
346.587 6.52506 0.107251
419.605 5.22465 0.0860276
308.539 3.36185 0.0631648
467.143 6.52651 0.143885
435.402 5.76384 0.123958
248.516 2.74441 0.0443481
408.368 4.90351 0.0977412
336.746 4.78097 0.121228
559.56 7.48571 0.146408
425.371 9.73559 0.209272
364.123 5.49655 0.123652
198.267 4.4694 0.10605
347.201 8.37191 0.22759
436.788 10.8673 0.262771
260.487 6.82256 0.185046
354.081 7.29292 0.19414
443.969 9.1636 0.282981
481.261 10.8423 0.343025
507.782 10.0082 0.293336
322.942 7.78101 0.209086
305.411 7.66319 0.243463
250.505 5.53109 0.183915
237.281 10.0695 0.329075
328.193 7.27528 0.226023
228.803 4.66113 0.158083
337.813 7.13995 0.264777
436.35 11.3168 0.354851
279.603 8.82329 0.327221
226.542 7.99698 0.277404
363.21 10.4241 0.364944
327.49 8.88881 0.324969
336.883 9.90759 0.37317
282.592 7.06734 0.29005
243.693 11.6288 0.45423
191.916 5.27613 0.242549
301.127 8.68228 0.363298
206.444 8.24979 0.388733
363.175 10.1457 0.477037
277.886 10.2309 0.496055
230.579 11.4337 0.468312
136.303 6.03684 0.293361
436.041 17.5284 0.824932
111.191 4.08809 0.200935
228.403 10.8549 0.556605
197.115 7.18213 0.37264
297.495 12.3969 0.633537
203.177 9.79985 0.505181
149.513 8.04152 0.3744
171.409 6.26582 0.325151
163.504 7.98645 0.399719
217.366 10.694 0.575071
186.231 11.6439 0.666755
199.52 10.472 0.623987
363.07 19.3486 1.15974
312.662 15.547 0.883898
295.317 16.2072 1.05422
112.489 8.39639 0.574855
168.037 7.47026 0.482753
153.25 9.00488 0.588178
316.084 15.0176 1.01757
180.926 13.6947 0.953601
228.762 13.0641 0.991864
268.837 13.3683 0.959038
160.377 9.70863 0.647686
140.4 6.25695 0.471957
245.118 15.5276 1.14881
117.82 10.4077 0.884714
133.851 7.80274 0.626903
240.763 14.1246 1.05696
171.766 13.9112 0.959017
131.127 8.49229 0.703766
99.0748 9.23077 0.763516
175.425 13.9961 1.14825
146.439 12.7975 1.09757
169.275 15.5799 1.40627
99.282 6.08675 0.545666
194.262 14.6691 1.15755
211.073 18.8069 1.69257
116.438 12.163 1.20357
139.975 10.8974 0.966014
344.431 29.0786 2.49933
153.252 9.07099 0.791973
204.989 14.9861 1.42552
135.819 9.70999 0.948945
120.213 11.2156 1.06349
137.277 13.8297 1.36788
215.907 14.8243 1.39689
135.088 11.8408 1.13373
166.317 12.1174 1.31374
129.25 12.6266 1.29782
140.702 10.8415 1.06666
161.93 19.3469 2.11934
147.642 14.1521 1.52634
170.097 18.1851 1.99052
123.713 11.6228 1.20099
145.99 13.7914 1.57362
117.205 17.2319 1.97778
101.591 9.49453 1.0035
107.562 12.8383 1.41777
84.6645 10.3323 1.23936
132.59 12.8233 1.51853
89.2578 10.7336 1.29402
128.332 14.5154 1.76775
87.4623 9.00533 1.08378
158.952 16.705 2.09377
98.7895 10.7594 1.47556
136.582 14.246 1.77864
91.7235 10.5549 1.4675
235.058 24.9248 3.22077
91.8904 8.97494 1.21596
68.7736 8.50646 1.17716
92.9227 11.5342 1.6448
73.9569 7.75589 1.06131
105.774 13.4442 1.94118
138.487 13.9884 2.03585
88.8902 10.6576 1.48969
132.754 16.6301 2.31105
143.766 18.9008 2.66015
84.9666 15.4461 2.50697
114.612 15.5361 2.44241
128.549 18.0564 2.60718
137.87 18.3972 2.88335
79.5206 12.3826 2.04067
96.0307 13.1651 1.98284
97.4985 14.8421 2.31814
178.683 28.2902 4.59398
156.818 24.5664 4.14058
135.894 15.4078 2.16167
61.6673 6.9004 1.01393
89.1471 10.0415 1.59479
99.6841 13.4952 2.3734
92.6195 11.676 1.96578
125.167 22.2382 4.13248
220.531 32.5092 5.44433
112.589 20.3955 3.7813
112.696 13.8009 2.36279
94.7826 19.3509 3.53365
130.049 22.0206 3.80907
88.9933 11.9179 2.06916
95.792 13.9509 2.86838
156.163 25.2444 4.56888
163.197 28.9977 5.72947
70.1871 17.7639 3.66933
162.654 30.0746 5.09009
70.1542 13.0651 2.5721
51.6167 8.84044 1.74491
68.2669 14.9147 3.06582
75.5204 15.0599 3.13961
48.6001 9.61962 2.18932
111.721 20.7462 4.19179
86.3757 16.1836 3.31786
88.254 17.3693 3.49196
50.9696 10.2764 1.99408
83.8003 13.4947 2.93555
78.5209 13.6696 3.24875
91.8429 18.3157 3.76484
56.0085 12.908 2.96614
57.5349 9.6558 1.85283
99.2897 16.9321 3.47335
81.6131 16.6755 3.39442
82.2989 17.4295 3.97216
85.6522 19.9999 4.89716
96.1261 20.704 4.51985
77.1197 19.6697 4.49955
50.1624 10.6991 2.48498
32.0665 10.1412 2.56745
54.683 13.159 3.20521
70.5361 15.3534 3.5011
57.6617 13.2498 2.84607
38.6638 8.93899 2.26387
93.1214 22.9969 5.2689
94.7597 19.5906 4.55197
67.0925 13.1276 3.22867
78.2578 20.3996 5.39524
96.6257 23.9389 6.56721
68.5498 13.0869 2.94221
54.5189 10.4776 2.7624
35.0413 8.46552 2.05943
44.4856 13.3795 3.64758
53.7227 13.1652 3.28058
64.2674 17.3147 4.30959
47.6453 16.4466 4.4755
40.5438 8.00136 2.10864
52.5678 12.528 3.5422
31.5384 8.17452 2.30093
43.9814 11.3107 3.20915
60.7943 15.4719 4.07689
46.3734 11.1876 2.80508
47.4668 12.0446 3.4916
47.3001 13.3905 4.49312
89.7497 22.4573 6.17844
44.5804 11.1723 3.88033
61.6303 18.2495 5.17091
63.3958 19.3565 5.59005
58.7156 16.8287 4.76345
84.8062 23.7609 6.54961
77.0196 25.802 7.99048
56.6715 18.5429 6.15046
102.461 26.6398 7.80827
61.3725 13.4045 4.08975
95.4438 28.2344 9.01316
101.828 23.3538 7.07741
54.6377 13.9126 4.12358
53.9655 17.9429 5.36349
41.5485 16.0979 5.93676
83.8763 21.4389 6.95118
55.2395 15.9637 5.25142
54.6993 13.0702 4.55343
59.5599 14.8804 4.35023
74.4984 23.6983 7.70793
65.2897 16.6423 5.38516
71.3943 22.3989 8.09161
47.2339 14.6824 5.20792
72.2285 18.7983 5.87732
68.6537 24.3298 8.6256
38.1348 9.237 2.66999
49.0164 16.1085 5.58243
41.1036 12.5311 4.78072
86.3027 24.3695 8.80229
53.5559 20.1523 7.48566
58.8175 18.3894 6.36642
49.3472 19.6407 7.15844
59.3297 21.6009 8.53345
41.1163 12.3758 4.33582
31.6994 9.53029 3.185
45.0589 14.0712 4.8405
31.1644 10.339 4.186
39.1945 13.8241 5.12992
41.0206 13.0985 5.53188
129.595 48.873 18.3761
32.2999 8.65731 4.28476
48.3966 20.3238 6.96958
48.6811 14.6343 5.68655
20.1312 7.57304 3.10822
78.5613 23.0939 8.65284
63.0313 23.4574 10.0533
70.6701 27.3037 10.1614
35.1773 9.4667 3.94278
53.3463 21.9975 9.59635
38.9842 12.094 4.93973
57.9088 18.1856 7.54123
33.263 12.6437 4.27014
46.1815 24.0919 10.8684
70.8069 32.655 14.4969
50.4038 15.1075 5.61694
26.4074 8.17529 2.80074
21.2712 7.46268 3.15015
33.9253 13.9724 6.40739
35.3546 13.1781 6.0721
28.6764 7.03008 2.44874
50.2013 18.6834 8.16464
29.9161 13.4854 6.18977
48.6429 14.8217 6.8026
40.928 15.7744 7.39076
39.6194 16.3336 7.5387
61.8774 23.4791 8.58869
30.1562 14.044 7.3227
48.756 16.5526 6.83657
32.1364 11.6597 5.22267
29.0916 16.6069 7.8706
43.8316 19.2049 8.61091
46.0876 18.225 9.12237
23.8567 11.3611 6.10955
26.1657 12.9223 5.88232
47.0506 23.2438 12.7167
54.1324 20.1373 8.52503
63.0534 27.4713 13.3129
26.8499 13.4984 6.88307
43.0225 17.0926 7.50803
57.4344 24.4319 10.529
57.0588 28.8362 14.7518
22.6821 13.4056 8.16248
43.0214 19.2371 8.67308
33.8015 19.7395 9.44846
33.9218 14.1114 7.08598
50.2527 27.1268 15.3203
61.608 24.7976 12.2574
48.2333 27.4163 13.8695
34.0281 17.2497 10.7663
42.6829 12.2 5.69221
41.9883 19.7395 10.1944
34.2021 16.4931 9.28778
24.2102 10.3938 5.44912
26.1724 13.8784 8.37744
30.0122 13.2467 6.38411
20.423 11.0185 6.114
36.9947 16.9632 8.94524
43.9727 22.0967 11.51
27.8272 12.098 5.87812
30.7368 14.8488 7.66377
34.4758 15.6163 9.16316
30.7983 16.0964 10.3806
31.235 19.306 10.2324
38.6399 25.1588 14.654
30.206 11.8047 5.54673
34.8892 24.4502 14.6457
38.2366 14.4628 5.94251
28.5397 20.0667 11.733
27.2234 15.4871 9.48406
29.9672 16.4683 9.44115
17.3873 6.77421 3.93369
41.5932 18.3467 10.0303
23.6648 14.5554 9.37949
25.7478 17.8001 11.6028
49.2086 21.9608 12.2575
19.8906 7.71887 4.32591
34.3377 17.3219 9.50371
24.9896 13.3895 8.39907
33.2578 16.2269 9.46984
47.8483 30.0653 19.0531
30.0589 11.4791 6.2697
31.5275 17.7895 11.7824
30.03 18.9111 13.3139
22.1545 8.7485 5.24311
28.4837 16.7262 10.7629
26.554 14.828 10.2634
33.0879 18.8632 11.6149
51.9502 28.846 15.8056
22.2638 15.3667 11.2652
18.8186 9.64518 4.85696
17.3098 16.0302 10.6871
33.8647 22.8473 15.9766
39.7527 22.4101 13.8032
43.0627 32.9782 24.2
36.6967 20.296 12.6352
41.7683 25.7122 15.6816
19.536 15.7714 11.6213
35.8856 17.6985 11.3629
31.1683 14.3039 9.53492
37.0276 23.0157 15.1613
27.3975 18.4089 12.0316
41.6156 24.4405 15.9363
29.7343 26.3426 20.9791
37.8352 21.0805 13.8441
31.6659 16.9874 10.5923
19.8171 13.3205 9.12652
17.7681 15.0101 11.143
27.399 17.3132 11.8526
13.1941 8.04101 5.71402
14.1613 10.1415 7.52936
19.4066 13.1788 9.97041
24.7239 16.0829 11.3663
20.8242 13.4604 11.0824
35.7117 26.0218 17.0575
17.475 9.3568 7.21908
33.0316 22.5829 16.683
37.3977 22.3613 15.1934
16.3311 11.5414 8.79652
18.6699 12.5465 8.44653
34.2226 27.1261 18.855
16.98 14.5785 13.2668
33.9915 23.2772 17.8179
28.143 15.1522 10.7006
27.2658 16.5021 13.8605
33.8917 20.6084 14.8036
50.2189 32.0526 21.1012
29.0575 20.2805 16.6588
25.0582 18.0021 13.0137
31.8322 24.832 19.8323
14.0361 14.5578 14.0574
28.1098 17.043 11.6798
34.1394 23.5217 16.0579
22.6199 18.1463 14.3285
19.2746 20.6446 21.3865
30.2694 13.4887 8.21951
20.7383 12.067 8.73389
33.2063 28.2917 24.5987
15.7463 14.6028 11.8609
19.7779 16.0401 13.7497
28.8959 18.4572 15.166
32.2327 22.6758 17.4706
22.7467 17.3286 12.8589
27.937 16.1581 11.6707
19.9272 17.9219 14.4709
21.7587 17.3175 13.572
13.3584 8.78498 7.85425
18.5816 12.6031 10.3363
10.0827 10.4126 9.80713
24.3065 20.9824 17.0368
10.7821 10.123 10.5557
11.6702 9.28845 10.2669
34.1583 24.8472 16.9102
20.8017 16.3435 11.6661
32.2164 29.3568 25.6098
14.6386 10.7024 8.96845
12.7227 9.86074 10.3983
25.0446 15.9986 11.4464
20.0128 13.761 12.288
21.6395 21.4506 21.8434
19.6247 14.9426 11.2547
12.6802 13.3462 13.2084
17.1228 15.4863 17.4185
19.7051 12.6364 9.13496
15.6818 14.9737 12.7344
13.0627 13.861 14.4243
22.8056 22.5073 24.8786
37.3426 23.0842 19.225
34.6047 26.0169 20.7472
20.7133 13.2144 12.276
25.2497 24.0002 22.4156
26.851 22.8519 22.5028
20.0093 16.102 15.7617
23.4922 16.188 12.656
18.4764 15.9902 14.2905
21.1666 19.8487 19.8562
17.5908 15.7848 14.3343
27.5656 22.1155 16.4954
13.709 16.8927 17.2307
15.4252 13.9531 15.1276
23.7903 21.1454 21.7833
24.7158 18.8918 17.1825
22.6878 16.1827 11.3265
13.3306 16.8379 18.044
22.4185 31.8028 33.341
31.9095 23.4919 22.2385
18.168 15.6172 15.9747
31.4784 30.1757 27.6191
9.85238 10.1196 15.4447
30.0122 21.5036 17.3675
24.4216 18.1699 17.6896
13.1235 15.8834 19.3449
53.2827 40.9232 36.7155
15.5966 12.7605 13.3376
13.8245 12.5935 12.7369
12.1839 10.9511 11.9578
18.209 19.8762 19.1351
22.3286 20.8156 21.2142
18.4658 14.7119 14.1302
21.225 17.423 19.2892
29.8865 24.9185 21.7065
20.6158 22.2851 23.9328
18.4943 18.6526 18.1339
23.1771 23.1304 24.2132
16.7956 15.0965 17.8571
26.6621 24.5666 24.9794
11.0196 10.8929 15.945
22.7392 20.5045 21.9641
14.7859 15.2423 20.537
21.6485 20.3272 21.6189
18.6964 13.7977 16.3974
27.0833 28.2064 29.0291
22.654 21.2468 17.3336
11.4535 13.0242 15.0562
13.8775 12.4352 11.6625
15.0576 19.9848 23.3944
18.8873 12.8784 12.6458
15.3934 15.761 18.8893
21.9255 21.3197 21.4436
16.6603 14.5068 15.11
11.3109 9.98621 11.5324
17.7589 21.4344 23.7448
17.4952 18.9423 16.7203
13.1738 14.9552 16.9968
24.0679 37.5578 46.3375
16.4982 12.4032 14.2862
19.3754 16.7302 17.1767
20.5045 26.8027 34.6157
26.3637 22.4325 26.2637
25.4653 27.1816 29.3497
16.5521 16.6617 20.0489
29.0934 27.2991 29.9388
10.4866 10.7608 15.3364
14.0856 16.7913 20.2288
22.6662 16.4681 14.6506
16.2742 16.9061 18.7242
18.0289 16.5331 19.8396
15.1686 14.314 12.4185
16.4715 26.0598 38.1515
15.497 10.8965 10.3489
10.4063 12.0919 13.4532
15.2676 13.7125 15.4362
7.96538 9.3741 10.7274
10.4235 15.4014 18.9007
14.2759 12.9614 17.0787
14.4271 13.8693 17.538
13.9541 16.4009 17.4241
8.90082 12.9021 19.9275
10.0541 16.0553 25.7016
16.1229 13.6261 16.9663
15.1753 17.432 18.9575
9.65286 8.9236 11.6645
13.389 15.4229 18.0994
14.1108 14.6987 14.2826
11.705 14.9626 18.7168
9.43247 9.89465 12.1362
14.6446 19.1967 24.6729
20.8493 23.0941 29.0922
15.4002 15.7476 20.3953
18.7142 23.196 30.232
14.5057 14.4692 14.8708
12.3702 15.1368 17.957
4.824 8.25171 15.8763
14.602 12.7622 12.9857
12.0983 18.3662 27.4382
18.3964 19.9736 22.1788
13.1068 19.0183 23.326
14.4182 18.8979 24.7063
7.14153 7.33088 10.2034
9.74216 10.2523 14.6154
16.9999 19.6832 27.3087
18.1495 15.893 14.584
6.88415 13.961 22.7451
9.77444 9.70792 13.1603
7.8062 7.48553 11.0607
15.9525 17.4869 23.7458
11.7393 16.9492 21.9742
14.2909 17.8526 22.6546
22.8676 29.2445 35.4967
6.36911 7.02855 14.0156
21.7172 27.6152 41.4441
21.197 27.8124 31.3958
10.234 17.6904 31.085
18.1059 18.3443 20.8975
11.9774 16.6739 27.9811
14.2524 14.3726 16.7084
9.94582 9.17735 13.3892
20.8282 30.3637 41.8477
27.5324 33.1941 37.203
12.5341 14.9997 23.6331
15.7916 18.709 24.4143
12.0707 15.08 20.8567
12.1171 15.1764 23.275
17.1203 18.7661 21.1215
11.9497 12.7353 13.1155
11.2772 19.1195 31.8033
17.8694 21.0477 30.632
8.75366 14.3498 28.0086
13.343 20.3597 24.4862
8.04343 9.54114 13.1894
9.87246 13.9332 21.6053
7.34172 9.52635 11.7488
12.4315 22.5335 35.6771
15.0336 15.8819 22.8107
8.41942 10.0712 17.5445
12.5992 13.2246 16.3423
16.3569 24.2336 33.312
6.29825 14.1092 35.3495
18.4072 20.6908 21.1695
6.35349 5.69268 11.1549
8.3931 12.1547 15.5822
12.85 20.4932 31.1344
12.411 20.0375 22.0682
3.61905 5.2588 10.8543
10.0546 22.4923 34.3542
12.6186 11.439 16.1437
7.87379 9.0556 17.6007
11.7866 13.7395 17.7922
12.635 18.7544 32.2978
9.92794 11.618 20.4878
15.751 19.1854 24.1157
10.2482 16.345 27.9009
9.01446 13.6117 31.2321
28.8133 33.0936 37.5696
7.08355 6.88207 12.002
6.45322 10.0549 17.3454
11.794 17.7873 32.9586
20.7714 22.7197 21.4247
9.84211 14.2917 19.3424
8.98817 12.9158 20.2988
12.9642 18.8459 25.4691
8.83049 13.7027 24.503
5.64825 14.7221 32.9675
16.0112 19.7626 24.4435
10.9087 13.2665 20.1784
10.1955 13.3152 22.8344
7.78992 12.7167 21.4609
8.47116 11.1932 17.3635
8.60322 10.6901 15.2885
9.36781 13.6611 19.9134
12.9359 18.4187 30.6548
12.8532 26.6935 50.6023
21.3994 24.76 30.892
8.072 9.68506 16.162
15.2725 22.0314 34.208
15.2265 20.5626 28.6823
10.2997 17.2262 33.4771
14.7466 19.7067 24.8739
7.89697 13.7097 26.1921
10.0925 15.8233 28.2239
10.6049 18.5634 33.5608
11.9241 16.3515 24.8658
10.3107 10.9873 17.0273
8.53306 14.2678 23.2668
9.22745 16.0402 26.1259
9.45734 12.3659 16.3174
6.19748 11.4972 26.1889
7.62675 8.13817 13.9023
6.24065 10.1558 16.1795
9.89747 13.3484 26.369
13.592 18.4617 27.3831
5.31121 8.94876 20.516
9.0897 12.1676 18.9855
9.26032 13.3156 17.8998
9.00989 13.995 27.25
7.24521 9.74922 12.6347
7.90932 10.7519 16.9271
6.42315 11.9131 25.8841
11.396 12.4421 18.7111
17.1946 31.6052 54.58
5.51404 10.5077 20.8965
11.536 17.7277 36.8187
10.0423 14.5463 14.6861
7.10422 15.3552 28.6623
5.57949 7.64095 15.0513
9.85023 19.3225 41.1922
14.4495 13.6255 8.72715
9.67029 21.5387 39.6811
8.78301 13.1139 21.441
4.93503 10.8733 21.6177
8.64983 14.3659 28.0385
7.31652 10.3794 21.3516
12.6467 19.9301 36.9886
7.2256 20.9554 67.8636
31.4514 46.5974 41.5034
11.4376 28.6753 59.413
10.8186 11.0296 14.8928
5.20207 10.0574 25.8713
13.3618 16.2715 21.9512
7.5047 13.2132 17.983
4.04737 8.28278 16.8243
7.29146 16.3165 28.3857
5.31594 12.708 28.2062
7.47403 9.91501 20.7543
11.9967 21.6865 36.6819
7.03658 15.5097 28.8814
6.60412 10.6898 26.102
7.94667 11.4745 23.421
11.6282 14.9205 19.7371
4.7131 11.6344 28.3917
7.36805 8.60104 15.839
8.38791 22.143 41.3499
13.6848 18.0723 28.527
4.48594 11.91 25.9887
8.91272 17.1191 29.6391
6.81975 13.5302 26.2999
5.4255 9.02765 25.233
12.5019 16.1122 28.9394
10.2994 22.3997 46.0965
11.2658 16.9823 31.4122
10.8805 11.9832 21.2338
9.4738 13.717 21.7185
6.78809 18.8662 43.6395
14.303 19.2164 28.5357
5.64787 12.708 34.151
12.6076 19.3912 31.2248
10.3921 13.774 17.6128
4.43477 8.87985 24.3087
5.67641 8.29721 15.2684
7.08549 13.0296 21.8839
7.94821 13.7142 21.8138
6.53668 15.2664 30.0875
5.70335 10.6497 24.4822
5.04016 9.25574 24.4718
12.5747 21.2222 43.9074
7.44885 15.0746 29.8531
7.64891 13.8029 31.608
10.7865 16.2505 25.9906
5.98932 6.27434 9.66074
8.00878 16.8621 35.967
5.98962 11.5217 19.5157
5.71269 10.7037 18.3207
5.61193 12.45 28.9409
5.29748 9.29328 17.1819
7.16533 13.3293 28.3794
10.2785 19.7371 42.6502
9.89385 16.6233 26.6339
5.89811 8.74462 18.8481
8.33965 13.2142 17.4646
2.70105 8.83449 26.0866
7.12856 8.39186 13.8744
7.9982 14.7049 30.5685
7.15774 13.2565 26.7338
7.839 10.2882 12.8892
4.88356 11.6102 29.1962
10.7359 18.8249 33.1656
6.80842 16.0921 28.8547
4.20142 9.76153 31.7886
8.23283 16.0507 39.4941
12.557 18.7586 28.6368
5.42532 8.311 23.1992
6.20964 12.8088 29.0037
5.5112 8.35245 14.988
6.38222 12.7621 26.8222
6.64051 13.3613 31.5144
5.00864 9.23471 17.6105
6.11317 9.05364 15.1108
3.73652 10.4943 27.7653
5.47009 13.7569 28.3353
4.76767 8.82985 22.986
6.99386 14.2245 26.2031
4.56474 9.6321 25.1696
5.70085 12.5566 28.9183
6.27396 11.9129 35.2708
11.9736 18.3305 27.2725
5.41153 11.5275 26.6124
8.61202 16.995 29.6425
4.36439 11.6934 33.5816
6.18106 13.804 29.3437
8.29964 11.4974 24.9547
6.82661 11.068 26.4572
7.37834 8.75329 16.4125
8.09737 16.158 28.2232
5.51454 14.9722 45.7167
8.8373 13.5501 30.8134
10.706 18.9108 34.9543
8.94791 13.5594 17.9041
4.9318 13.8392 31.3193
5.67053 13.0134 30.3712
7.34455 20.9808 63.8269
16.0644 26.7266 38.7949
5.69062 13.6479 38.7513
7.49089 12.7819 29.1458
7.91929 11.3428 25.1
5.2306 8.14701 24.2007
7.09802 12.5043 35.1007
10.335 20.9124 43.4088
6.78953 9.57958 16.9402
4.51364 11.2303 26.3062
5.48432 9.71672 18.3212
7.38411 16.0104 28.7338
4.50076 14.3606 33.6636
7.49245 16.9118 38.9283
6.9057 14.2794 28.8181
4.51639 8.74164 22.5988
6.17786 17.4956 36.5287
4.99258 13.9933 48.5241
9.0934 9.44787 14.5691
7.27552 11.648 27.0185
7.68512 16.1225 42.3464
7.88344 14.3392 22.5397
4.70489 12.1907 28.3267
8.21185 13.0998 30.9212
8.01131 16.887 34.2455
6.02461 12.1395 31.4509
6.60455 12.2435 25.0662
3.62401 6.67729 21.8497
5.8121 14.1386 31.8312
4.66447 7.21741 18.8755
6.30196 14.8459 30.2155
8.8569 19.4631 34.8754
3.26384 12.1283 36.1067
5.79977 14.1068 38.5211
6.82639 10.8098 26.3364
6.48737 11.5156 28.2556
7.4622 13.7583 29.0869
5.5954 8.62052 17.0469
4.96709 13.2083 43.7566
10.2274 16.3979 24.8109
5.1486 12.9318 35.1016
5.836 8.66144 20.9674
5.69605 9.43853 16.0217
4.93078 11.1835 26.5038
4.24612 13.7002 35.0552
7.82371 13.6322 41.4111
7.0287 13.4568 25.8427
4.62429 10.1822 20.6903
3.51612 11.278 28.8074
5.74891 12.6197 31.3793
6.01483 14.6471 39.2494
5.1917 12.8496 35.8279
6.23307 15.0001 37.031
6.1884 14.0729 29.1505
7.7584 20.0368 39.4509
6.8088 13.984 36.0019
3.9708 12.4706 37.0003
4.95242 10.5108 27.567
6.9355 11.1495 27.7353
6.54325 12.2206 32.1033
6.14883 11.6854 22.827
4.9356 11.4638 22.6545
4.47404 12.7936 32.0621
4.85489 13.6191 31.6342
4.62323 9.08521 20.4361
3.24439 8.38327 19.1478
2.77774 10.6207 38.192
6.74991 9.45404 20.9063
5.57105 11.3677 28.0419
5.86711 12.5072 34.2591
5.86036 10.0201 22.1581
5.46368 14.1904 33.2567
6.92195 13.7834 31.1719
5.86723 13.5337 28.3298
2.56453 6.46345 28.2467
4.78782 10.9475 27.2389
5.03758 10.8847 25.1868
3.43709 9.38967 42.4254
9.83866 13.202 24.4291
6.04876 10.5231 15.1903
3.53395 12.2732 33.1192
5.90538 17.9741 51.1581
7.67623 10.3876 21.6643
4.39903 9.32606 21.6643
4.0417 11.4227 33.2373
4.52368 13.2888 35.7394
5.6291 9.16738 18.7256
4.1922 10.5006 29.2845
4.39977 8.95217 21.9029
4.27002 6.46875 15.5611
2.75713 11.2292 41.6048
8.97324 17.3441 30.1793
2.7449 5.05923 16.0726
3.6368 7.97021 29.4538
6.11033 8.11345 17.5993
2.48007 6.4706 20.358
5.34126 11.1105 50.4644
11.5559 22.894 39.2802
6.11763 10.8 25.5605
7.74885 19.113 37.3736
3.71384 6.00041 20.4047
3.53525 7.01587 18.1748
4.33492 13.8774 40.8763
7.35177 15.5613 34.1314
3.44727 12.6664 32.9215
5.12703 9.6028 35.2205
4.99776 7.47695 25.9838
6.52925 12.7409 24.8883
5.10749 14.7019 33.2897
5.24699 11.3371 30.5257
3.73521 6.81704 35.9643
8.95468 14.377 28.256
5.50801 13.2009 33.1188
2.56578 9.04375 27.9335
2.99985 8.7729 25.0825
5.00554 12.2364 38.7039
6.51751 11.479 22.8337
4.60468 11.2877 27.1587
5.27507 13.8794 36.2123
2.91748 9.33028 34.8329
3.91397 4.97018 17.9775
5.25218 12.7896 31.4507
3.33046 4.98024 18.0266
6.3896 19.7824 41.4076
4.90516 10.5349 33.312
5.26414 8.05441 18.0349
3.3593 8.8792 20.1242
3.76622 11.6418 37.002
2.9589 6.11563 14.3693
2.69089 9.66741 25.118
3.80844 8.43919 28.2072
5.13769 14.7224 42.2253
4.90153 7.98321 19.3501
4.4545 11.1573 29.604
4.79827 7.98352 17.6373
4.28277 14.7228 43.6003
3.92965 8.57577 20.9226
3.74189 7.86612 18.4301
2.91564 9.31117 28.9877
3.51528 8.32267 24.9232
2.29703 10.4946 32.7323
5.13503 12.381 40.1122
4.95327 10.9525 28.6468
3.53546 7.56403 22.0485
3.75093 10.9332 29.647
5.78886 13.1133 32.2839
4.21711 11.3495 31.1382
4.27484 9.23054 30.9629
4.63887 12.9562 30.1927
3.745 8.18861 16.0517
2.51757 9.83568 29.963
3.73481 8.78481 28.4196
3.68266 6.43184 14.6354
2.87962 7.10666 22.2654
3.26991 7.50943 16.2114
2.13648 8.83 27.1665
3.62027 11.2165 39.1427
5.31548 8.68375 29.1554
4.84886 9.01737 21.9085
5.00851 13.5985 35.1364
4.085 9.65196 32.7271
4.267 11.9256 32.613
4.49031 8.36096 13.1179
2.23958 7.73731 27.7928
3.79064 11.4706 33.5343
5.41632 22.2271 63.9996
6.08687 11.468 28.4942
3.96463 10.3327 38.6939
4.94553 11.0886 25.4629
3.18357 3.9998 15.0755
3.65433 8.7133 19.4506
2.33763 9.78348 28.6706
2.67919 6.03741 24.1787
6.09305 12.9713 30.1581
2.65713 6.03135 23.7837
4.6243 15.0146 41.9449
4.04343 7.69416 29.1496
2.84518 7.19808 18.9945
3.84316 11.3815 31.7907
2.963 7.12672 21.8755
2.17756 8.17044 26.8183
3.8524 6.7472 20.1157
3.23629 7.44046 15.6788
3.19354 11.4952 34.9625
3.38417 8.58185 36.0273
4.03833 10.6275 26.8736
3.15918 8.49422 28.5984
3.39672 6.14671 24.236
4.19458 10.0768 21.4744
3.30589 9.74506 31.5545
3.21036 6.80642 23.0903
2.36111 7.50515 23.0805
2.24468 13.8057 88.5447
11.7786 21.8951 30.8013
3.34492 8.08083 18.6306
3.55703 10.1084 31.2338
3.63401 9.947 34.9308
4.00763 12.7508 34.5925
4.55912 11.9994 36.1538
5.80993 10.3928 21.3207
3.09122 10.8117 26.3347
2.54451 7.54729 30.4587
4.20953 9.81481 17.8126
2.08562 9.62059 46.559
5.68601 14.1119 32.9487
3.76983 8.05687 27.1472
2.80234 5.63136 22.5696
4.56294 22.0621 62.5362
4.52017 6.63966 38.2306
6.03019 11.5695 20.3411
3.16934 7.92014 22.4497
3.47318 9.42463 26.1842
2.16704 6.04187 23.5472
3.31664 8.34072 32.0689
5.37433 11.6661 31.1592
3.39099 13.6483 39.6665
4.36663 13.0574 36.2857
4.57762 16.4139 46.8425
4.81081 11.4959 37.1235
4.12129 9.60754 29.0666
3.43171 6.89837 19.2036
2.71548 9.36513 38.8277
4.32854 6.70543 21.6041
3.32317 7.42014 16.6328
2.34745 11.4612 36.1493
4.63187 8.60373 25
2.53297 9.4425 45.6904
3.83029 9.33188 26.6934
3.65082 4.82032 13.6425
3.20939 12.2781 31.1837
2.86547 12.3327 36.9155
3.37731 4.93462 22.7954
4.35406 11.7587 37.4495
3.44517 11.5132 23.9439
3.02394 6.23308 23.6422
2.65382 9.18582 25.3163
2.9285 4.35546 21.0262
3.15063 13.7559 49.6126
5.0269 9.44723 28.9221
3.32542 9.63408 23.7846
2.89733 12.7696 34.2236
3.24995 8.5199 35.6922
4.64318 16.4128 41.6097
3.19609 9.09154 28.3738
3.08452 9.20805 30.4912
2.61774 8.20676 29.6138
3.54477 5.73434 13.8214
1.84659 4.41627 13.2782
2.18909 5.00697 19.5479
3.54599 6.67168 20.1648
2.86485 9.6637 29.529
2.69885 7.48819 26.5363
3.6457 9.05753 34.6451
4.25011 11.3028 29.6485
3.26006 9.85968 41.6715
4.0963 10.2673 35.4236
2.97125 8.35647 17.2697
2.49678 7.46799 21.0089
1.6345 5.58286 23.959
2.43384 9.59857 27.4017
3.21629 9.08194 31.3861
2.89543 11.2358 45.0193
5.25288 12.9672 34.2839
3.64971 6.96322 18.8109
2.48501 8.98329 28.2529
3.09681 10.2277 29.1634
2.30402 8.83811 28.5254
2.89681 6.01521 19.3806
2.6554 9.33142 27.2226
2.77827 5.34611 23.915
2.65021 7.15497 23.8391
2.25241 6.34937 28.8227
3.27079 11.5383 35.7468
3.62949 6.74672 20.6162
3.39465 6.6701 17.9423
1.95534 6.3031 24.7442
3.30054 11.4893 28.5556
2.26489 3.48028 12.0241
1.76707 7.15066 32.0452
4.00834 8.50142 22.5632
3.21228 6.49814 25.4597
2.85014 10.9792 33.905
2.16143 6.62004 23.6729
3.06174 10.2449 29.8366
2.97165 10.6078 39.4547
3.27666 11.2935 32.4514
3.46528 10.0137 28.9211
2.43723 8.75495 45.8043
5.62741 18.859 87.8721
9.70373 24.7649 47.6851
2.84726 6.15634 19.7639
2.84398 7.01051 24.0711
3.43788 13.9274 43.5888
3.22141 8.67592 45.6027
4.34701 12.7001 38.8543
3.22993 5.56537 23.342
3.81795 7.13841 20.7356
2.28951 13.3682 42.9172
3.95125 7.37629 31.1303
4.17525 10.3064 27.4737
3.29618 7.57775 25.6513
2.71088 8.01271 31.027
2.87346 9.37454 35.8437
3.00749 13.7438 37.7371
3.93132 9.93107 29.0429
3.39843 12.2471 54.2626
4.92716 6.35867 24.6225
3.21228 9.9831 35.7324
4.93405 14.1224 34.4019
2.72993 7.04582 29.5516
4.06768 6.02784 12.6253
1.23057 5.07455 15.0818
1.95378 6.32766 25.8652
3.07226 7.42485 22.0481
2.49728 6.80529 26.2365
3.26658 10.8216 40.797
4.00554 7.28704 27.0095
2.89395 7.0797 24.3608
3.01861 10.7467 33.0253
3.02683 4.75755 19.8454
3.21738 7.52925 20.6857
3.32841 10.2346 30.1001
2.71413 7.16732 21.3271
1.80319 6.12839 33.3569
2.52936 10.5452 25.4992
2.69976 5.70587 23.2324
1.80721 6.04933 28.5295
3.08785 5.27146 24.5371
3.77414 7.01229 18.2892
3.06769 10.9406 24.9692
1.9939 6.88527 27.8075
2.55011 6.76636 33.063
3.04201 7.95758 18.9654
1.56001 6.07841 14.7955
1.24941 8.27989 30.5588
3.16321 6.29696 14.5707
1.34372 4.13821 29.2054
2.21585 10.315 32.8404
3.01955 6.47445 29.4876
1.8931 7.57707 33.9928
3.34905 7.15847 26.9169
2.76613 10.4362 24.7368
1.79576 4.33302 15.4218
1.87657 5.14958 20.923
2.09701 6.46096 27.7944
3.59469 11.9697 31.8825
2.85933 7.50959 22.4113
2.25368 8.01954 37.5797
2.9883 7.57928 29.2723
3.17096 11.4986 31.0119
2.20645 5.50488 30.0568
3.68665 9.06705 12.9353
1.26592 4.15806 15.7382
1.84678 6.4382 24.5891
2.75306 8.35009 32.6254
3.26071 6.17642 21.7663
1.71825 7.09073 39.2483
4.07961 8.91946 23.6154
2.30896 6.55362 34.4649
2.74082 7.09005 24.7707
2.43796 7.98426 22.7041
2.28083 5.84994 29.7847
3.01948 8.12026 39.1435
3.90881 11.2666 37.3852
4.12692 9.75195 22.6702
2.57096 9.84127 25.9894
2.48402 7.73072 31.3447
2.60004 6.34601 15.5494
1.30616 5.75359 27.4908
3.67406 12.5328 28.6961
1.97753 8.67525 40.2167
3.38279 9.83256 26.9286
2.21306 7.75849 25.0488
2.01891 4.91145 20.3591
1.99031 6.26361 18.5062
1.51134 6.2274 23.9124
2.27337 8.79305 34.1772
3.13729 9.82065 48.8634
3.38793 5.66573 26.3628
2.41003 8.85081 29.0567
2.56035 11.2888 34.8227
2.56451 5.47963 19.9303
2.15313 7.59411 26.1572
2.1623 7.41481 31.9341
3.30143 8.18185 63.959
5.5296 19.6193 55.5274
4.20763 14.5854 38.0902
3.51088 8.16475 18.915
1.78329 6.1182 20.1568
1.69633 6.69957 26.6748
2.43712 5.22263 20.8008
2.22938 5.43171 16.8427
1.39304 6.12668 31.0426
3.20591 7.16923 28.4396
2.00927 5.72649 28.4604
2.79461 4.29577 16.5946
2.75746 7.78232 14.9755
1.44886 5.33974 19.6292
1.45944 7.34282 21.3421
1.82024 8.39184 42.1352
2.73283 5.14894 28.9325
2.92558 11.1058 19.0208
1.80562 10.2109 45.8052
3.19426 5.34155 12.2713
1.1489 7.12248 38.1068
2.68913 11.7022 54.9652
4.71174 5.89419 14.7856
2.36197 6.6928 21.8188
1.9278 9.44921 29.1537
1.8014 6.455 29.6146
3.23691 5.74279 17.1847
1.83835 5.22649 33.3506
3.60309 14.6783 31.5479
1.36228 2.81781 17.6853
1.77063 4.47337 25.3649
3.07791 16.4535 46.7775
3.41061 5.49972 16.327
1.48771 6.03802 35.8545
3.34364 6.48392 25.2741
2.66075 12.0861 25.7171
2.5013 7.27516 38.8245
3.67827 11.6438 33.9345
2.48587 6.88395 23.7982
2.59847 9.01496 41.8905
3.33835 10.5817 25.6249
1.80117 4.53274 32.12
3.22621 12.4702 33.3099
2.78297 9.8581 27.7803
1.97168 6.47722 29.2412
2.47754 7.03812 34.888
3.74876 7.1697 28.9423
2.61526 6.49153 30.3025
2.86022 9.25068 29.405
1.99493 3.81544 9.50388
1.07535 6.44413 33.6993
2.8636 6.27981 11.3877
1.52078 6.62998 28.8762
2.47693 6.22062 26.1842
2.73921 5.18468 16.0256
1.62327 8.30164 27.448
1.85924 5.70917 22.3952
2.13328 9.35971 37.1926
3.61399 5.14106 25.1545
2.66276 10.0079 37.6561
3.35923 9.80851 43.3718
3.06728 7.19758 43.5829
4.27653 10.3078 16.5392
1.39303 5.13645 17.3742
1.52441 6.19822 36.0351
2.51315 8.79398 20.3716
1.90059 4.46233 25.1745
2.40469 14.1024 39.7338
2.56475 5.3925 17.5244
1.14617 6.1315 33.9035
2.9174 8.7022 34.6232
2.9842 10.0597 33.1091
2.22128 6.69563 39.8259
4.44241 11.4577 25.8914
2.68681 7.78529 29.0137
2.52617 9.40865 34.0119
2.79546 8.26008 28.1172
2.0854 4.98638 21.4267
2.50422 10.3917 28.1474
1.81358 4.81203 17.21
1.46473 6.87093 34.9443
2.63386 8.64258 27.9844
1.79261 7.72051 48.2344
4.35729 10.745 27.3043
2.13775 3.65579 14.3401
1.1042 3.52244 27.4069
2.08172 8.79718 27.5938
2.45576 8.53146 35.3269
2.96135 7.50265 25.0096
1.77005 10.117 36.8365
2.62478 10.8231 33.1242
2.52988 7.08638 45.6911
3.5043 11.1861 43.6251
4.3416 11.5336 31.0982
2.13603 13.8998 45.6722
2.89332 6.38074 29.1784
3.23066 18.1268 125.185
9.64851 20.607 24.5451
1.75873 3.88756 25.1142
2.70552 8.54825 30.2541
2.60896 4.33436 15.4742
1.77554 5.15175 22.4913
2.38276 5.84333 17.7492
1.67264 6.25911 30.8184
2.97972 9.91197 38.9467
3.46178 8.43941 24.2318
2.27328 9.00235 23.4169
1.83957 6.0331 38.012
3.10546 6.58124 19.6297
2.08413 4.83736 39.2243
3.58355 10.1139 35.8335
3.06001 10.7685 22.4575
1.42043 2.7696 19.1097
2.1999 9.00399 32.8049
2.55713 4.28644 22.4005
2.37642 6.96603 17.0763
1.82162 5.58207 21.5588
2.44907 7.87884 30.0128
2.43541 5.98206 28.1006
2.1251 4.04045 14.7301
1.53204 5.53517 23.9891
1.61701 4.25782 16.12
1.62997 8.6694 25.7213
2.30394 7.5995 28.6658
1.52597 6.15083 37.1212
2.66242 5.46678 20.9292
1.72512 10.3211 25.1863
1.61746 7.75689 39.7589
2.99663 8.7221 38.031
3.61112 7.28386 20.6532
2.56838 8.74168 35.0697
3.29593 9.99344 29.9728
2.02711 5.42777 21.0984
2.10919 12.0545 35.0644
2.87041 6.66664 29.0186
2.84612 9.75689 37.2021
2.83344 7.96389 22.7717
1.13361 7.61417 24.6087
2.02121 6.15257 52.7395
4.68739 7.32698 14.8823
1.41998 5.1036 28.4709
2.44636 7.38669 36.328
3.60505 6.47305 12.9775
1.38647 8.02071 36.2976
2.31572 5.49058 17.1585
1.54713 9.59571 46.8052
3.14237 7.65444 37.6554
3.42373 7.99803 19.1278
1.20831 4.30053 26.4056
2.39568 6.98304 18.1457
1.55969 3.75684 15.7621
1.4663 5.93196 28.5107
2.06259 5.06625 23.3034
2.12846 7.80268 40.0015
2.51881 11.5701 25.452
2.04744 5.45558 28.2162
2.44136 5.46338 19.5115
1.51243 5.56789 14.8501
1.64279 6.69455 26.538
1.97058 3.69912 9.05956
1.18152 3.34462 14.8735
1.59097 3.21262 19.5915
2.23484 8.58737 26.8486
2.34242 8.63497 33.1447
1.93803 4.42793 23.9783
1.51068 8.57557 35.7202
3.107 7.68758 25.2987
2.02903 6.07826 20.499
1.45265 7.01502 27.4857
2.56533 8.77758 27.0258
2.45848 9.97296 41.0482
3.05192 4.83377 23.4017
1.91159 6.516 26.4515
2.0765 7.57746 35.1755
3.31038 6.77148 26.4719
2.00892 9.09952 25.4528
2.37615 5.65083 19.8812
1.80632 2.17073 15.3203
2.01383 6.33132 24.5954
1.9937 5.57926 14.6085
1.34576 4.8993 20.4606
1.67791 3.91373 21.3891
1.90023 4.9609 25.4841
2.34013 6.46434 22.596
1.61704 5.40883 29.7271
2.89358 12.4754 46.0699
2.84809 7.5042 25.6834
1.40436 7.65835 11.7276
0.703577 5.68523 31.7881
2.53371 4.9941 26.7016
1.16438 6.88265 31.7216
2.50831 5.30493 18.2571
1.18048 13.994 121.774
8.18581 26.5185 38.8347
2.96141 7.75307 38.432
2.03443 9.18458 25.5462
2.59198 5.49748 28.954
2.54247 8.74328 34.0326
2.93935 6.42165 26.579
2.18289 9.48107 24.5908
1.92475 4.15629 14.3473
1.03551 3.71171 24.3501
1.91778 4.80898 15.229
1.56184 5.63337 19.696
1.56617 4.83514 14.4679
1.27792 5.61184 33.8704
2.94024 4.73014 21.4931
1.96117 7.27034 42.6631
2.75041 6.30382 19.437
1.81492 6.76614 33.8113
2.38609 7.10508 33.8666
2.82603 8.61195 11.8902
1.30408 4.93163 13.7113
1.07888 7.49299 28.8911
1.44077 6.46498 33.4932
2.66045 5.89477 16.8782
1.23874 3.6243 21.5077
1.63845 6.46537 25.6201
1.38261 6.26572 17.8318
1.52203 4.98473 22.6497
1.78855 7.19079 37.4981
3.16463 5.79408 17.9871
1.66259 4.07967 25.0914
2.14915 5.24849 10.2915
0.880367 5.31563 35.4222
3.61704 9.87998 23.6343
1.75074 6.86518 26.4533
2.34214 6.52601 14.6843
1.00358 4.39173 23.0017
2.10269 5.94382 32.9224
2.30765 4.45821 13.4251
1.24029 7.93429 31.9338
1.74454 5.81088 26.5008
2.17029 3.42794 10.3213
1.14433 4.09923 21.2822
1.50187 8.50959 39.7354
3.58159 9.70378 27.0889
1.47925 8.35612 33.1224
2.25136 8.39751 31.6489
2.23731 6.66914 35.6496
2.67653 6.58207 32.8348
3.24893 6.9519 26.083
1.74124 8.42529 19.8616
1.5953 5.96833 29.26
1.87476 9.43373 27.8541
2.25882 4.71816 29.4011
2.5439 6.83298 18.8745
1.93965 3.6464 18.9115
1.76484 4.15846 20.4279
2.51971 12.088 25.3974
1.39176 5.49045 26.2658
2.04478 5.57117 30.5849
2.04814 6.13871 24.6045
1.57775 4.93502 36.4442
2.60964 11.3236 23.4849
2.38288 4.3695 17.1017
1.23256 6.69827 23.7168
2.01866 5.37058 21.2566
1.99344 5.96537 28.685
2.32885 6.69016 32.665
2.19902 5.60106 14.5933
1.16538 4.19906 11.4985
0.891274 3.08906 22.1774
1.87799 6.27396 19.9384
1.74841 5.96741 22.6152
1.76173 7.62123 35.8182
2.70707 7.50421 32.4494
2.97643 7.25923 14.2932
1.58049 4.51966 17.8229
1.42476 4.28734 23.7953
1.16014 8.27204 40.7566
3.18695 9.28125 35.1105
3.38009 5.59226 22.0699
2.0903 7.08804 24.4843
2.05633 9.72747 32.9699
2.54819 7.30492 23.1272
1.75416 5.99057 40.6407
2.72768 6.25834 16.9978
1.44743 9.18253 36.6721
2.54091 4.6582 17.8628
1.80744 7.98486 32.4723
2.41244 5.77882 22.3898
1.29505 3.007 15.5654
0.99276 4.7145 20.3612
1.25162 5.25191 28.9863
2.04535 10.3995 32.5723
2.09326 6.20541 28.5003
2.63483 8.54126 26.8262
2.43686 17.5091 152.369
9.39321 0 0