# pn-170911/RbIIR-61-NIST-1280-1959.psd
# Power spectrum* (dif=0,1,2) (really just |FT|^2)
# NOTE: only the first half! (symmetric)
# weeks: 1280-1959
# 6 clock-days, 0 excluded
# PSD: 1441
11.8237 0.0223381 0.0226401
8060.95 0.3955 0.112895
15952.8 0.472501 0.057432
20110.1 0.77185 0.0536641
13540.7 0.897825 0.0646127
13675.2 1.81742 0.0928804
4136.59 0.52952 0.0842811
2606.6 0.583853 0.0378525
3308.38 1.34345 0.0293553
1882.6 0.635449 0.0754683
1897.38 1.04721 0.0871429
2023.14 1.61512 0.0515297
1704.81 0.948664 0.0413189
1425.91 0.545961 0.0406678
1402.58 1.09141 0.093219
841.256 0.433532 0.0646087
698.511 0.595549 0.0747127
420.864 0.407004 0.048813
449.411 0.795881 0.087797
428.714 1.13576 0.0629313
1042.47 1.11004 0.115551
423.146 0.955222 0.0810627
243.248 0.328136 0.054698
511.744 1.00429 0.0669359
101.589 0.224579 0.0726365
302.07 1.22271 0.08422
104.889 0.422447 0.0478139
378.45 1.25564 0.0350768
313.479 0.803675 0.0594627
514.175 1.42389 0.0810742
456.767 1.91474 0.0520614
234.016 0.950825 0.0562733
186.2 0.564368 0.0503254
150.892 0.581171 0.0967778
307.538 1.25389 0.064286
174.505 0.667208 0.0829096
54.9093 0.270782 0.0593875
171.672 0.967185 0.0735982
379.15 2.14732 0.10209
253.074 1.18144 0.0951965
217.683 1.3874 0.0968478
148.937 0.8413 0.0651957
133.01 0.93213 0.0668309
287.403 2.24471 0.0722825
189.089 1.61323 0.167821
105.241 0.993527 0.0569211
251.344 2.35907 0.0928915
197.57 1.73785 0.081028
127.774 0.936053 0.0819054
127.401 1.57448 0.111654
179.218 2.21653 0.0806107
109.745 1.17401 0.0710891
260.322 3.04672 0.0968151
145.977 2.70856 0.0902486
187.081 2.23013 0.118929
128.549 1.75998 0.0995639
67.6558 1.00157 0.0754832
132.077 1.94966 0.178022
95.7533 1.7137 0.110118
282.895 4.89586 0.0817467
109.23 2.1298 0.100876
159.645 2.58268 0.119868
135.065 1.99976 0.168241
69.3796 1.25149 0.150215
80.9272 1.4074 0.125369
170.859 3.48879 0.0822175
175.274 4.03168 0.159414
107.534 1.97435 0.146893
247.328 4.9767 0.210802
131.578 3.05854 0.0868094
139.27 2.94815 0.153081
192.817 4.85806 0.160811
88.7963 1.9543 0.116014
118.037 3.06665 0.131156
130.997 3.42198 0.258214
64.3536 2.01761 0.0672626
107.797 2.76332 0.146451
98.5961 2.33965 0.0589707
184.534 4.76062 0.237338
88.2294 2.6354 0.125914
223.32 6.97842 0.166903
130.811 4.37456 0.201361
69.8819 1.98475 0.12131
204.373 6.44974 0.160584
172.304 6.10393 0.293733
90.3801 2.85592 0.203242
110.635 3.01012 0.173652
129.364 4.00286 0.223617
129.493 4.69142 0.112646
141.685 4.85635 0.27374
186.463 7.48207 0.324843
87.0265 2.97827 0.175818
120.919 5.07557 0.18146
154.015 5.50292 0.252782
40.1035 1.68814 0.127159
75.8512 3.26353 0.16825
111.238 4.42205 0.172281
118.553 4.26701 0.213272
157.804 5.81206 0.436661
47.5624 2.46716 0.146884
180.38 8.27027 0.501157
79.831 3.63467 0.283879
115.71 5.16749 0.355415
85.0338 4.24556 0.254123
114.574 6.34632 0.289173
87.7418 3.35571 0.163546
77.8564 4.0022 0.400508
94.8971 5.16297 0.292368
46.4763 2.95112 0.149411
182.15 9.85825 0.488108
146.544 9.81773 0.762917
91.8972 4.76766 0.395816
176.343 8.34175 0.306415
191.792 9.40036 0.605353
229.336 14.1576 0.959096
75.5207 5.07393 0.337634
106.658 6.03154 0.413454
149.474 10.1082 1.03116
126.285 8.00333 0.55016
97.9805 6.49884 0.692699
107.801 7.65771 0.541736
134.973 9.97758 1.14128
102.849 5.57264 0.445519
61.6502 3.94876 0.482158
112.222 9.66434 0.714408
182.862 13.1908 1.2299
93.4053 7.63772 0.633529
89.9776 6.55601 0.541662
30.354 3.10543 0.389298
104.216 9.0323 0.703591
81.2301 6.9129 0.734746
76.5923 5.85242 0.519933
88.3609 8.10656 0.554791
162.912 14.1713 1.30655
61.2703 4.87639 0.472326
81.6007 6.66662 0.625376
200.123 17.345 1.74126
78.2665 7.01867 0.724218
84.2395 7.08774 0.688235
77.3402 6.46082 0.695303
48.1719 4.68621 0.380523
61.1146 4.81733 0.533484
60.5425 5.84444 0.724051
122.109 10.0136 0.909826
110.791 11.0018 1.29514
127.826 12.2919 1.46972
82.7636 7.24836 0.930352
96.0648 9.90191 0.939358
72.9804 7.29488 0.865157
172.945 17.2106 1.91042
78.9975 7.78119 0.955922
99.7441 11.8211 1.55231
129.615 13.3718 1.48809
82.0224 9.27844 0.949272
78.9661 8.82039 0.965495
135.654 14.8418 1.5391
67.3923 6.01527 0.73725
73.0396 8.0349 0.972062
39.2101 5.39168 0.444872
109.652 12.0189 1.43448
84.032 9.29107 1.12489
60.2783 7.82149 0.938998
60.9477 7.06028 0.976147
112.223 13.5099 1.9654
145.419 18.3879 2.65821
79.9339 8.33005 0.863636
40.6938 5.19631 0.839873
60.3247 7.80351 0.835032
60.3394 8.3064 1.06416
31.8482 4.95299 0.514435
34.754 5.78121 0.793489
101.481 11.9592 1.67397
57.9186 9.41955 1.29693
124.212 17.4297 2.0942
68.2895 9.69451 1.55077
50.0381 8.35539 1.16751
70.4552 11.0397 1.68492
56.8614 9.90484 1.51234
76.1442 14.5655 2.21558
70.119 10.7212 1.95143
55.4074 7.4237 1.1242
26.9095 3.7086 0.677404
35.7843 4.40374 0.619355
75.1673 10.9328 2.00409
72.1758 12.7491 2.26752
61.1237 9.3013 2.30804
79.7189 13.0352 1.97021
80.1568 13.2307 2.45198
60.7085 9.46461 1.70035
54.9464 8.83403 1.82898
51.6835 8.46426 1.45944
68.3584 10.6467 1.60053
68.512 12.4115 2.19337
75.9785 11.7751 1.60312
95.832 18.9174 2.81209
127.536 22.3173 3.86616
63.3544 12.1701 2.09182
15.5757 3.40537 0.775988
27.6144 4.62697 1.32702
49.99 9.83762 2.22843
81.6413 13.573 2.14693
55.9392 10.4967 1.86813
77.6982 15.5857 2.89441
68.6837 11.7074 1.80012
47.016 9.11071 1.99616
59.9317 12.492 2.12926
93.3167 18.8419 3.7646
48.5152 8.26841 1.36698
90.5387 19.2891 3.71902
131.446 29.7656 6.27693
51.3961 10.4382 1.98186
47.4838 10.3069 2.68804
30.7594 6.58536 1.27676
24.0135 4.74216 0.828701
77.4619 16.1494 3.65821
68.4005 16.0658 3.78305
46.0253 9.60178 2.59981
65.3541 12.9017 2.68099
51.5454 12.305 2.86386
71.7896 13.1186 2.41503
52.7875 12.0946 1.99672
29.4402 6.56784 1.79573
89.7784 20.6702 4.58106
34.013 9.64622 2.79497
41.1857 9.12044 2.67463
58.3143 12.9115 3.08271
56.0775 12.2186 3.21205
43.2266 10.4551 2.30133
79.1523 17.264 3.75415
28.0795 7.43706 2.11745
69.6198 17.1457 4.08002
39.3056 11.1449 2.66416
40.7468 10.9623 2.21775
108.504 26.6274 6.25163
32.5403 7.2436 1.60086
67.2663 17.9608 4.8521
78.2107 22.0029 6.06697
33.8546 8.72702 2.0561
86.9139 24.1998 6.09776
73.5249 18.4781 4.95454
53.8199 15.2345 4.0396
38.7067 9.04666 2.25676
46.3148 16.1253 4.54153
58.6441 14.1633 4.38449
42.5115 13.5911 4.55875
65.5108 17.0517 3.80117
58.018 15.5316 4.89233
23.4758 7.73545 2.57275
33.1759 9.50998 2.93352
64.2841 17.2146 4.4947
87.3447 21.1244 4.96966
32.8611 8.89495 3.10475
45.6055 13.1364 3.48652
28.7353 9.30808 2.95646
20.3659 7.49506 3.06153
71.5435 17.3525 4.63867
57.5925 17.2697 5.87344
58.5982 17.6591 6.24394
41.9982 10.8917 2.78886
30.6258 10.7696 4.27622
63.4197 16.3262 4.13407
55.4311 17.3048 5.1643
43.8737 14.6576 4.2616
38.1528 13.9106 4.48153
46.6625 14.5587 5.03742
33.3135 8.84646 2.5684
37.6774 12.6788 4.4918
81.4421 26.8261 8.08667
116.546 35.5755 10.9471
60.6142 22.011 6.71152
30.0795 12.5517 4.3557
47.7281 16.1763 5.36553
46.3586 21.7306 8.83409
32.0246 8.63212 2.58324
60.7339 21.3211 7.54964
37.4622 14.4245 5.69137
39.5258 13.593 5.175
89.112 28.6463 9.14255
57.1585 17.0166 5.31222
30.4608 10.829 4.39006
51.7456 17.642 6.16932
51.5239 17.5306 5.51499
35.8774 11.5064 4.26056
79.0769 30.5044 12.1634
94.3691 34.5777 11.8732
25.7412 11.7362 5.57534
13.9589 6.3151 3.10431
37.5276 14.8282 5.50906
66.9356 24.1376 9.5895
68.9131 27.3883 11.3398
59.7698 19.4095 6.17719
42.4553 18.4033 7.30342
40.3714 16.2596 6.99176
59.4561 23.5764 8.41029
24.3051 11.6923 5.20211
30.8752 12.828 5.21071
27.2688 13.228 6.15832
94.3567 38.3633 14.9294
71.3559 26.9864 9.58278
31.8507 14.5701 6.3683
40.8419 17.9735 6.65185
34.7394 17.4549 8.66029
53.4313 20.3628 8.19925
27.4519 9.33347 4.3783
32.7421 9.98938 3.61974
40.7726 17.5704 6.41845
47.6777 23.0394 9.79414
10.1358 6.0229 3.41633
44.0717 18.0021 7.87266
43.2444 15.2291 5.83145
31.1428 13.924 6.3457
23.4725 11.6804 5.71466
46.4225 21.1333 10.182
15.3767 7.07832 4.25837
54.5498 28.4904 13.758
49.838 17.4815 6.12211
34.9891 16.1691 8.40672
71.7178 31.3249 14.7408
28.3228 15.7137 7.99895
22.1277 10.3551 6.30838
47.1636 19.2422 8.18118
38.6217 14.9912 5.96091
48.2175 26.2665 12.6437
22.3127 7.1797 2.58793
30.7341 18.5824 10.7054
55.2781 26.5189 11.6541
43.099 22.1281 11.6156
17.2972 4.91642 2.74809
51.17 26.3106 15.4562
79.4847 34.9401 14.8552
34.3515 16.1236 7.25003
21.4177 12.2567 6.24837
26.956 12.1627 6.13562
42.3786 19.4734 9.47821
35.7745 17.9121 10.765
48.4771 21.1578 10.4537
44.5961 19.7158 8.34091
32.9982 21.1583 13.17
22.3287 11.5616 5.54255
23.9148 14.3614 7.96453
10.9868 5.02973 3.91364
53.234 27.1746 14.2796
23.0066 12.5036 5.97314
46.3561 27.8133 15.777
32.6533 15.7768 9.6831
54.2524 24.9838 11.7721
34.4406 18.2489 8.62729
20.0079 11.2058 7.33234
17.8982 10.7167 6.70475
20.5205 12.5596 7.51123
37.8367 21.2568 11.1342
21.366 10.2661 5.26723
18.6271 10.2889 5.83526
16.9072 9.29176 5.02501
15.3778 7.75395 4.79267
41.8819 27.3293 16.6193
73.8686 40.4324 22.0633
26.0208 14.6546 8.74379
23.3225 12.3537 6.42905
36.1671 23.7334 13.9221
56.7069 33.2381 18.2794
36.6001 22.641 12.9004
36.519 26.7169 16.4722
20.5039 12.2627 8.2115
23.8557 9.12221 4.61436
17.1956 8.76143 4.59881
24.1625 16.7185 11.3396
45.8556 26.0602 15.3272
22.7265 11.5773 6.76419
32.0273 21.0265 14.1107
28.8674 18.7776 12.0491
38.052 28.3023 19.395
36.9291 17.3508 8.76311
49.2445 34.7944 22.7963
25.6339 11.4809 7.35502
37.7209 19.8758 10.0433
23.8576 16.1618 12.2401
33.2499 20.1865 11.3889
33.645 25.4318 16.5602
19.9253 8.45952 3.70211
22.7156 17.0796 11.3469
20.4139 11.8508 7.86906
13.8814 10.3256 9.07378
36.6836 23.6245 14.6927
45.5571 31.4061 20.4005
31.7911 24.6342 19.5094
63.3027 33.9605 16.2145
19.4618 19.0557 15.9564
28.3676 17.2325 9.11996
21.9287 19.0206 13.5485
22.8386 15.6837 13.2901
23.2774 12.3026 7.74994
8.04009 3.64926 2.72495
31.4497 17.4508 9.66571
21.6593 14.7551 10.132
46.9325 35.9276 24.8301
33.0631 19.503 11.0178
18.0605 14.8337 11.6106
32.9443 23.3904 15.0271
30.0585 21.6074 12.3405
15.7881 14.6458 11.9734
21.6147 16.7503 12.4872
17.0472 10.2046 6.79463
35.6005 24.9774 14.4075
16.6681 14.2807 9.78928
21.3515 25.4016 24.2926
33.2514 17.9323 9.94222
20.1929 16.7718 13.4425
22.6749 14.3229 10.5059
27.1339 19.0164 13.3894
27.2172 16.6423 11.6022
39.0382 32.2735 23.9287
40.403 28.0683 19.6133
26.586 19.1542 14.5905
34.6477 23.1658 17.9248
29.3796 17.8836 11.294
37.4569 29.5281 20.7966
28.3995 25.4139 21.1595
22.7582 16.1648 13.2312
19.6482 12.9892 9.37397
18.0623 13.2198 8.75513
19.4685 18.961 17.0037
10.9874 9.74726 10.1517
17.1177 10.5811 5.89067
19.2025 21.5343 20.8589
17.0779 13.4475 11.0355
17.4007 10.4762 6.83617
17.0231 14.4292 12.5853
37.6947 30.7898 23.5703
10.1249 7.90669 6.8353
18.0433 16.4292 12.5446
25.7065 32.4761 34.1782
43.8772 29.2355 21.9013
15.0686 10.8345 10.0153
27.7911 21.7468 19.22
18.5025 10.5243 8.76832
34.6153 24.2788 15.9422
19.6136 21.494 21.1736
14.9811 14.0879 15.5924
25.1122 14.1934 7.94613
17.2707 17.8063 16.9485
23.6478 16.4033 12.0571
13.6879 11.2233 8.86793
23.5225 21.9766 20.9558
35.0676 30.1396 24.5197
14.4422 19.1024 23.1033
32.1144 20.509 16.8797
31.2667 26.9588 19.0207
13.8736 14.6851 14.8617
13.4547 18.3899 23.3518
31.1918 23.0077 20.7234
15.7231 9.17653 7.36484
15.0057 13.9834 13.0396
21.0694 15.0189 10.8558
14.7718 14.48 15.7345
36.8832 28.5158 24.2255
32.8808 29.2755 22.9255
30.0274 26.4836 22.2817
14.2536 16.2072 16.7621
12.8607 11.9793 13.3888
34.5621 30.1861 26.1329
16.9349 11.7214 9.50791
4.81647 5.77474 6.88023
15.118 14.8141 15.7121
22.091 15.9588 12.8622
10.5159 7.77279 6.15788
14.8411 18.3808 19.4566
39.2369 40.7472 37.4711
19.0899 16.951 17.6142
23.9974 21.102 20.8601
53.5058 57.1971 53.6514
25.2797 25.8503 29.227
26.8937 15.3337 9.49969
22.0574 16.6546 10.816
23.5432 27.8639 26.7014
8.93637 11.064 14.9776
26.5888 25.4874 24.0942
14.7248 14.2573 12.3392
10.5797 12.1752 12.5954
11.7682 14.9571 17.2926
16.3412 20.6487 24.0017
17.2368 21.2058 29.2554
25.4495 23.1219 24.2816
21.7458 15.1387 11.1755
17.4324 17.1593 18.4929
23.9708 18.1767 11.5512
12.9185 19.1301 25.9746
18.8817 17.2597 17.0812
15.9032 17.293 22.0233
21.6847 17.8373 13.9861
20.982 28.7916 39.1472
27.9904 20.5159 15.6134
21.014 23.1911 22.1084
21.7253 21.3836 21.347
25.6731 27.3746 25.9026
15.6186 18.7951 21.4243
12.5762 16.1456 23.359
29.4995 25.7892 23.0932
25.2611 29.3641 36.7225
30.4433 31.4178 33.0747
24.5528 27.8097 29.6714
20.1577 19.5199 20.2435
15.4843 16.8807 18.4385
18.197 15.8199 14.6323
16.7262 19.2333 21.0081
25.9803 28.7211 26.8342
23.1677 33.1974 40.0773
15.658 19.8775 25.9725
9.56584 11.0949 17.1966
23.1005 21.6378 20.1225
22.493 23.8587 21.8098
9.36934 10.6156 14.0574
10.9416 8.58219 9.06927
14.9281 13.3418 12.2285
23.326 32.2552 37.2647
16.9811 14.9014 12.6177
18.6808 24.5651 24.3009
10.5641 17.6545 25.1953
10.5182 13.5438 19.4572
21.2303 25.3415 28.8314
23.6743 26.721 24.9968
13.1669 25.8505 40.1738
22.5068 20.4951 21.6857
19.1644 28.153 40.6557
30.3833 34.2523 39.7999
13.7253 12.0393 20.8544
25.1249 14.482 5.78121
24.0137 31.4635 35.3019
20.6848 19.7931 18.8589
11.2823 12.8579 14.9893
18.485 24.3186 28.3799
7.88396 10.0358 18.9081
25.3182 28.512 33.0188
14.1894 14.0059 14.4233
16.3241 21.7758 30.7098
24.6398 23.645 21.6813
11.4915 12.1769 11.2389
14.2596 20.9817 28.2843
11.1003 14.5596 25.07
35.9067 34.1329 25.6976
32.5941 54.9432 68.692
10.2509 16.7944 34.0556
14.6317 11.3254 13.5081
9.41626 8.70238 12.9666
27.9583 27.1806 24.508
14.8408 17.225 18.6383
15.6055 21.5712 28.3151
10.6495 11.6297 14.5197
8.1659 9.57748 16.0037
21.067 20.6279 16.715
13.9674 19.8026 21.2322
9.85355 16.303 22.4475
6.91258 11.9506 21.8672
8.79113 12.2952 18.1871
17.1289 25.8953 38.7859
17.5089 16.901 21.582
13.7781 16.3776 16.2054
7.60653 9.95931 12.1032
9.37908 15.3407 27.4488
21.8396 24.2685 26.0724
11.5989 15.7894 24.3911
18.2921 20.4902 19.903
17.6823 26.2633 32.6002
7.31675 9.68963 17.6579
13.1155 14.1449 16.2733
14.1565 18.2683 16.2048
3.95219 9.65736 16.7869
18.9201 30.9467 43.8989
6.98216 5.53683 8.29819
12.9924 19.0575 27.7632
14.9496 21.307 29.7003
13.5988 15.8687 22.4006
13.9932 14.8265 18.3761
9.72731 10.5255 12.898
13.5064 20.0749 25.9181
9.79752 13.7033 22.5305
15.7747 17.9303 17.9432
9.18177 14.0004 20.6394
17.7892 28.2427 40.0916
6.72125 8.86136 13.1611
9.41233 18.9767 37.688
22.4194 23.9939 30.526
11.5967 17.1768 26.9995
8.71645 9.1725 14.1818
7.81441 6.97809 6.16098
5.11546 11.174 25.8799
20.7383 22.8451 20.558
11.6239 17.1205 23.2747
12.6886 23.0053 36.9925
20.9949 23.6526 25.7902
15.24 26.4702 37.8426
7.56834 10.5968 23.0764
21.25 29.3315 42.8532
19.7255 20.7477 23.684
15.9708 20.878 26.0996
13.719 23.8577 37.2231
9.61673 14.1867 22.5042
5.58558 6.84112 10.8606
4.31532 6.94303 20.152
25.5041 36.7732 42.9501
8.50347 13.4093 30.0732
16.3962 19.7672 22.439
11.1775 15.0781 16.0521
4.71898 7.70624 12.5321
7.30927 11.9596 17.9779
11.4833 18.6643 21.4134
10.6287 18.8586 27.3265
10.2419 14.66 19.5693
6.97779 16.3934 32.4135
15.1756 16.7051 19.5919
11.5862 19.4784 31.1321
8.81206 11.9999 19.9904
7.68082 14.9408 26.1911
8.47557 10.3971 20.5989
23.1225 40.0374 57.5536
9.85529 10.3121 15.5044
17.1191 32.2839 54.4068
14.6307 16.8789 24.7109
9.49583 12.7121 14.8745
7.10135 10.9525 15.6063
6.91095 12.0954 19.655
4.5168 7.3212 12.4985
4.22342 9.84559 27.9882
19.5049 26.3358 31.8011
11.6597 18.8865 32.094
13.8715 20.8293 34.3322
10.6684 12.685 12.6691
6.82527 11.2553 15.2093
6.04948 12.9746 23.9655
10.7383 13.5634 18.7693
9.27589 17.0015 31.4382
12.4324 16.1079 24.4323
12.9245 19.5929 26.3902
13.0749 24.8338 42.6872
12.835 17.8101 25.729
7.36708 10.2085 15.781
17.4148 34.0304 50.5371
8.92774 15.8647 34.737
11.4866 12.4941 16.4
10.0651 20.0505 37.5261
5.97938 5.93714 10.2094
9.57491 16.7625 30.0014
10.5248 14.7225 18.226
9.80434 22.1919 37.4885
6.41288 15.8327 38.1359
10.4305 12.5708 21.4879
8.70978 12.0373 24.6364
11.2851 15.2644 23.6809
10.216 16.2683 29.274
9.73184 9.68914 10.9388
16.133 31.4346 44.4531
9.70207 17.6032 32.5225
9.95222 13.7943 17.6655
6.94665 15.5222 30.1807
12.403 24.1024 48.2428
15.8915 23.4058 40.939
13.5763 20.7768 33.3858
15.8789 27.3738 35.9382
9.95349 23.5339 50.83
12.5384 20.3159 34.7697
11.9152 19.6974 30.4929
4.75981 8.73845 22.1129
9.47959 13.9259 19.113
11.4161 24.4888 41.3851
6.22739 10.068 26.6739
13.3015 18.9977 23.56
8.19166 15.1073 22.9328
5.25083 9.46204 18.6263
8.03267 13.9184 21.4434
7.19619 11.9385 17.5718
4.22262 11.1375 25.9351
8.14868 16.3548 29.6667
7.00357 14.9778 38.1318
14.5593 23.4724 32.9374
10.2022 20.2391 40.1696
9.84827 15.2789 17.9833
3.96796 7.59807 13.9245
3.88053 7.88181 20.6506
10.4084 17.6331 22.4906
3.69575 9.14958 22.7331
6.02056 8.2205 14.3444
6.28016 12.682 26.7555
9.21394 15.5585 23.3795
7.18341 10.806 15.3043
7.6419 20.4168 36.931
3.54081 8.58795 33.997
18.5176 30.9273 44.7781
7.17518 16.0443 38.1201
8.67984 8.87921 11.0975
4.91988 11.5494 20.3786
7.08218 16.0793 36.0763
8.49506 13.206 26.6428
9.17936 12.8421 22.8966
10.3345 16.8885 25.3446
5.33391 12.1578 26.8645
7.18439 12.1316 22.377
8.32806 16 28.4256
5.62516 9.52534 13.234
6.23342 20.8685 52.7202
10.8637 12.9413 14.4758
6.37584 14.2282 31.6535
12.9816 28.9292 58.8001
10.5743 12.689 12.8115
9.58323 24.8485 50.3647
6.95104 12.5664 21.8452
5.4444 13.7792 28.8617
5.79568 9.74583 15.2846
10.7295 35.4515 86.095
11.3545 13.336 31.2041
9.80195 14.945 19.4197
4.33411 14.0395 51.1347
24.4378 40.654 55.3032
5.5565 8.47184 18.0376
7.15123 14.6473 26.0779
3.63418 6.19906 17.8847
9.0569 17.9129 28.0236
3.50763 12.813 39.0096
9.49582 13.119 19.7163
6.46633 16.3079 37.7316
8.31919 11.5921 17.2321
4.84834 9.83023 21.73
2.82475 4.11648 14.3266
8.73286 12.687 18.9956
5.99532 14.649 35.5938
8.25093 14.0668 19.3863
6.52697 23.3224 57.1605
6.78841 6.14315 19.4239
14.0693 21.9154 27.0555
7.47995 14.8366 25.8285
3.61179 8.35867 24.6244
8.56876 17.2998 27.7125
8.19725 19.3429 40.0864
7.21906 17.0664 40.0677
8.54649 15.4223 29.9179
9.01685 20.9854 40.5169
10.6882 23.9045 50.9694
10.1614 21.3814 53.4575
15.7049 23.3228 33.6647
8.94204 21.3139 51.4099
10.2764 16.4694 27.5104
6.90055 11.7234 18.871
5.05477 12.5501 25.4449
5.3424 12.7424 27.8165
6.9699 20.7272 50.6881
8.5531 15.2166 34.626
8.67191 15.6178 33.2356
6.987 12.1229 23.245
5.26296 7.82803 14.1795
5.68702 13.8571 35.2612
9.40964 14.3123 22.1621
3.38227 4.77763 8.311
3.99118 9.91644 18.3998
3.93024 12.0389 32.4785
6.51069 14.1321 25.1407
3.14789 7.46457 17.7021
3.46298 9.26712 34.6597
9.3884 19.241 42.7521
8.23209 17.2787 32.4274
8.87785 19.4971 39.637
6.08018 12.566 26.6432
4.93942 17.932 57.4949
10.9396 12.2291 25.4851
12.8067 27.6048 42.1451
4.3309 8.92792 26.583
9.51403 18.874 22.5635
1.52131 3.90792 9.5284
3.52166 8.0508 11.9524
3.77706 21.1479 65.5189
9.38229 14.3491 30.0602
5.89418 10.4892 21.2352
5.3197 10.0129 15.2424
3.91591 11.5667 34.0981
8.11465 16.0772 33.1688
6.49685 15.1114 31.6685
4.65478 8.91559 21.7662
6.85469 20.163 41.3088
5.40291 12.8524 32.1984
5.48132 12.7471 31.3436
4.27557 6.39536 17.2963
9.1589 21.5244 48.4797
5.78287 9.61169 19.323
5.28144 9.76074 15.9633
6.62878 22.3077 44.178
5.62828 13.2195 34.4845
2.95255 9.62664 35.1726
5.30035 8.42318 22.6224
7.57365 14.0315 36.076
8.9437 19.6839 42.7691
5.71447 8.45852 14.2125
3.70495 12.8186 37.6379
5.93593 9.19525 16.5079
2.66229 6.92309 19.5226
4.60435 10.2091 23.6241
4.66609 9.80792 32.5042
12.5547 23.8471 35.9644
8.13695 22.1032 50.8758
3.46073 5.57405 13.4676
2.71159 5.71915 15.9911
7.04649 19.7758 45.712
3.98955 10.8588 42.4092
9.48998 17.3224 38.2932
11.5608 31.5933 61.8567
9.72979 20.3488 42.585
4.28617 8.2259 27.7205
10.0303 23.9757 45.3342
3.94022 5.42877 16.9819
8.26082 19.0831 35.7817
5.10963 13.215 37.1611
8.34513 23.105 63.9243
11.0427 24.3933 51.4377
8.44573 16.3095 33.4489
3.49189 9.91453 29.9306
4.04309 4.43927 7.33445
2.04333 4.79924 13.7486
4.73716 13.4492 24.4688
2.45943 5.8174 18.9802
3.28559 7.28017 16.9659
3.32626 6.45621 15.0317
4.17765 11.1896 21.3633
2.22045 6.38749 20.6406
5.51998 16.5066 36.0512
3.30953 6.70473 23.2643
5.41841 16.6779 43.2673
6.04258 6.3573 9.3799
3.57681 12.6807 35.0719
6.32184 14.4776 29.0128
4.1499 11.5295 34.9019
6.10611 16.4403 40.9412
7.5776 22.4816 57.6316
8.40718 25.6577 71.2085
8.8931 11.7144 19.9233
4.95048 13.2366 32.1077
6.33788 15.8131 33.7624
4.467 10.8274 32.8375
5.48317 11.6589 25.2391
4.15772 9.96811 25.6185
4.21859 11.6284 33.1385
7.11381 20.8909 44.0596
3.15094 9.53594 40.2794
6.52997 11.8519 38.2589
7.62616 14.6156 28.1683
3.17028 5.9212 32.1184
11.7709 23.9669 29.9859
1.17067 4.38339 21.8681
5.16126 12.8628 26.4861
4.48458 13.6044 33.5384
3.92052 12.0671 36.5511
4.16128 8.16459 17.7148
3.09475 6.65763 15.0729
1.54914 7.72989 37.4667
6.64461 11.7753 36.5167
9.35532 18.7564 28.7956
4.25846 14.9977 29.3775
4.30133 15.2553 51.4609
5.75656 9.583 27.7464
6.38868 14.9939 33.8753
3.92733 6.71855 16.8374
4.26651 10.8658 19.8061
4.17393 16.1633 48.4394
8.90104 22.3652 41.3075
3.17503 12.348 34.8865
3.25264 9.10343 28.1562
2.81531 5.93119 19.3424
3.53768 7.28973 23.9832
3.38721 9.77938 28.7288
4.49321 10.2105 32.7751
7.80912 25.9716 63.9672
6.57551 7.2409 20.1136
6.85507 17.5626 41.572
4.6535 9.05144 14.8106
2.56456 8.67068 27.7308
4.15691 9.12107 18.056
4.34564 18.5111 60.1764
7.74755 21.4234 56.3312
4.49444 8.53585 32.3685
6.93219 16.9884 36.0614
6.66036 17.4722 37.7838
3.21918 7.96514 22.0186
3.47825 8.77526 32.7648
4.83993 12.034 27.0761
2.82034 10.0253 31.8021
3.61759 6.97276 24.4284
4.13153 10.8601 17.7922
1.79982 7.71442 32.5724
5.01241 7.98282 10.549
1.18604 6.81519 37.4924
6.34602 14.0065 28.2852
4.15763 9.45886 20.3268
4.23977 15.6746 38.8999
4.73295 11.2016 28.3925
3.77748 13.1971 41.4527
4.93503 12.7502 37.4509
4.99978 10.0073 27.1258
3.65567 6.25234 32.833
6.9311 15.245 21.1198
4.13193 11.2616 20.6617
1.7878 7.28421 25.0384
2.60767 4.5571 15.9736
3.11271 7.2519 14.8311
3.08771 10.4499 33.4321
2.9202 5.70523 25.8362
7.63187 22.9865 45.7318
2.38772 7.26112 29.9128
5.56579 11.4705 19.9926
2.71482 9.9595 36.2665
5.40587 18.4856 61.1459
7.26876 18.9426 35.6959
2.54678 4.51455 17.579
3.96885 15.3648 42.2973
4.22409 11.367 48.7513
7.67001 19.535 47.0941
5.8075 15.7268 36.2159
2.86495 9.26773 31.1112
5.27655 13.1449 24.01
2.97799 12.2348 35.0064
2.44596 5.0735 15.95
2.63379 5.37111 13.325
3.08189 10.0758 25.25
1.60794 7.45765 32.2678
3.42744 8.75765 27.2814
2.7568 6.60111 24.0435
4.19857 6.28056 16.0035
3.32023 8.70456 33.5279
4.55915 11.7057 20.102
2.29702 7.67855 30.7164
6.16764 16.4035 31.1757
3.42543 15.569 47.0561
3.62206 8.66566 19.875
1.83311 6.98397 31.082
4.03926 13.3995 42.7956
5.09107 17.9418 56.5151
6.17092 10.2894 21.8108
4.30491 19.5743 60.451
7.55297 19.6693 45.8875
3.75152 14.1933 43.4142
3.31068 6.20447 31.038
3.3137 6.98545 11.4155
1.34221 7.63161 34.5316
5.35602 15.8983 50.4073
5.44378 11.9789 35.1932
3.06122 8.65991 22.7897
3.209 11.7293 41.0493
5.03584 11.4086 24.0272
3.04661 7.04809 15.5371
2.35218 8.07969 21.2497
2.24806 7.50558 31.7289
3.40544 8.23713 27.6052
3.87985 11.3549 36.9518
3.86516 7.64824 16.8387
4.01032 17.8275 45.9921
4.83948 16.2677 52.7461
5.36973 9.09925 20.9345
3.68494 9.45246 18.7507
3.34872 13.813 44.4883
3.07263 6.2336 29.6696
4.69879 14.5281 31.4713
1.97526 5.26163 26.0925
4.49053 13.8329 35.9559
2.46731 5.86779 31.7465
5.20524 9.04313 18.7887
3.04575 10.3233 24.2375
2.16529 9.25131 30.0838
2.7669 6.88817 21.708
4.41585 15.3383 50.8216
4.42137 8.99131 22.1985
2.72906 6.73473 33.9995
5.39079 17.5386 47.9574
4.72544 8.93549 13.7479
1.81481 7.87074 20.5456
2.87092 12.0175 34.4549
4.60868 12.4 33.7402
3.45767 15.0867 51.2729
3.41822 6.54197 34.1965
4.65038 12.9439 24.2118
1.5074 4.38346 32.7742
4.27913 7.37829 16.4791
2.97695 13.4578 24.0362
1.45354 7.07303 29.1284
3.27939 10.4104 36.3337
4.36208 16.1204 32.3871
2.17052 6.2143 25.5592
2.43781 6.38567 20.4881
2.52591 9.08488 35.3289
2.68139 5.43667 22.9066
3.55603 8.21542 29.1298
4.08144 10.7361 26.374
2.53631 8.03908 24.9658
3.15909 9.22048 19.0725
2.19905 8.7223 36.4508
4.4838 18.2031 50.2187
3.9852 8.87504 29.8601
3.14311 9.13449 33.8315
2.76807 3.86839 14.9263
2.93556 9.07364 22.7417
2.63406 5.89043 16.3002
3.19192 12.9234 56.0384
6.05652 10.5647 22.5593
4.16042 14.9291 32.3873
4.03812 19.4643 73.8909
7.42992 12.5819 30.0143
4.2097 17.7084 49.7315
3.25245 7.52231 24.5878
2.38608 3.84101 15.6614
2.49852 7.02368 26.5271
3.32528 10.6512 23.3656
1.80604 8.58983 36.0848
4.12947 14.5699 36.0313
2.84558 8.55461 45.2976
7.16113 19.6068 48.9113
4.45098 12.0916 30.302
2.75566 14.4615 61.2897
4.61445 6.01948 21.5956
3.00691 10.4743 48.9732
5.28345 8.99765 45.9648
17.631 125.254 636.058
71.9659 214.279 401.368
17.4796 21.2173 51.3956
3.30961 10.9873 58.6876
5.71097 11.829 25.5396
3.33967 13.4041 60.8543
7.28398 23.5823 77.5484
9.35517 19.737 44.501
9.82734 68.0779 190.743
9.53283 11.895 45.6925
3.66027 7.93367 28.3704
2.61952 8.49887 27.1009
3.48279 11.7688 29.9959
2.599 10.2806 41.1585
4.30542 11.4196 22.9514
1.15166 5.00289 18.4373
1.33498 4.91446 20.3999
2.39708 9.57453 39.212
2.56629 3.24274 21.242
3.11992 5.84966 10.0151
1.82159 4.52251 22.1681
3.3884 19.5273 59.9743
4.48848 9.34896 43.4711
3.34741 10.0559 25.6557
3.00056 11.5826 25.5582
1.56073 10.3616 71.57
7.86926 18.3798 30.0299
2.47108 11.8161 46.7946
4.79886 13.7661 27.4468
1.98227 4.59622 15.7782
1.79927 7.24873 35.7251
4.22167 11.6103 34.8232
1.82623 6.98915 33.9047
3.19069 7.47244 15.9265
1.45487 4.96462 30.3346
3.05928 10.8584 34.1079
3.98029 12.7092 23.2572
1.21449 6.21785 37.2653
3.91828 15.0104 42.4326
3.18738 12.9381 53.3276
5.64026 13.4464 25.0301
1.21274 6.3141 42.444
4.44069 14.823 37.5552
2.31258 7.99236 34.7567
3.68956 10.3807 15.7178
0.890119 4.97273 20.5162
2.38287 6.95544 27.5821
3.53835 16.4279 39.2326
1.2959 6.55127 47.2423
4.39772 9.25426 26.178
2.26088 4.77925 9.51611
1.10984 10.7736 44.6922
3.72808 12.6377 45.2141
3.89026 6.8703 26.425
3.45296 11.2904 21.3576
1.76383 9.85912 35.0804
2.38342 4.90633 23.6981
2.01383 5.43056 22.0613
2.65946 13.686 44.5853
3.46933 10.4845 35.4281
3.01551 9.19777 31.8273
2.81712 12.0827 66.2893
7.09151 18.5895 35.104
1.91844 4.68443 23.5226
3.28367 16.1346 34.7032
1.23391 6.61916 52.6035
5.30149 13.3147 34.6755
3.50471 11.8769 33.3312
2.55985 7.07844 28.4315
3.17024 9.27197 38.4579
3.15426 6.73033 12.2486
1.64842 10.5859 43.3736
2.94718 6.91043 41.2442
5.58069 17.6354 38.3081
2.68228 5.07161 38.1571
4.92279 18.5665 55.5375
4.27753 11.9118 39.8371
4.0751 9.60755 25.5308
3.78443 19.1584 53.3393
3.45913 8.7213 20.7222
1.40469 5.81498 28.759
1.94254 7.81282 44.9688
3.54624 6.4194 14.1308
1.07481 10.618 63.9029
5.2733 12.2427 41.0328
4.18406 11.9586 18.4878
1.46419 11.6647 31.1073
1.60727 6.17279 31.4981
2.36207 3.39161 15.1246
2.47441 15.0381 44.5302
2.74679 4.25163 6.25461
0.475061 3.67081 25.2542
2.27204 7.93235 23.7701
2.57153 12.0009 40.2426
2.24612 4.50342 29.7948
3.05751 9.54065 33.0438
4.02916 17.8887 39.139
2.46281 10.4182 41.493
2.92065 10.0652 42.9492
3.1609 6.70132 34.179
3.38606 13.8808 47.4008
3.67309 7.96027 18.8009
2.63521 15.1826 66.4016
4.64649 9.66059 19.6704
1.49773 9.68768 54.6973
4.44172 15.9681 29.9989
1.74019 8.12263 20.2413
1.53643 4.59226 20.6464
2.1312 15.1635 53.2419
3.51013 5.00564 17.4271
1.68907 4.70638 9.4454
0.952797 5.94412 26.0656
2.01211 6.48392 27.9389
2.46469 15.3579 50.6977
3.15688 7.98342 27.7199
2.61116 19.1555 65.8961
3.14921 3.58988 30.2596
2.68854 6.53073 39.0637
4.00799 16.6846 61.3183
4.27418 6.96317 24.1845
3.33175 14.4148 52.545
4.73556 9.06209 17.8939
1.26758 5.09402 25.4676
2.48667 9.8642 33.3904
2.59708 10.8954 44.7455
3.58795 16.0521 60.9909
3.56522 5.16945 32.1401
3.57398 14.4996 35.9324
2.49945 4.06013 12.9559
1.49739 11.1807 42.7171
2.72011 4.6286 35.1808
2.79434 8.91086 32.1458
2.4567 7.62463 19.5365
1.9429 8.41491 17.8282
1.44934 4.45894 21.7999
1.75956 8.41621 15.5035
1.04753 5.39813 33.5256
3.75318 23.3523 76.9802
4.53537 8.94034 34.5593
2.87556 9.87678 34.2905
3.22512 9.06924 35.7897
2.32213 11.1889 36.9703
2.40149 4.54615 22.858
2.14946 5.92411 14.4488
1.62647 9.83762 53.8087
4.36399 9.2997 40.4545
4.02989 17.7791 48.0668
3.1465 7.27915 44.601
3.93792 13.1126 26.6148
2.31511 8.15517 22.4359
2.34498 8.14998 28.9651
2.11854 7.85982 27.1956
2.32526 5.94924 12.9612
0.765244 6.13749 35.766
2.69679 10.4223 45.7516
3.65521 10.8851 25.0431
2.20846 12.9219 30.1607
1.65057 7.31207 37.5091
3.04011 12.8206 29.9679
1.73985 5.51257 30.3755
2.69316 11.4505 39.1192
2.86556 6.70195 38.1153
4.12653 19.6416 70.8032
3.82985 3.59232 21.4941
2.51118 15.086 56.957
4.06133 10.8161 31.2469
1.85921 7.12044 25.5574
1.76428 5.44791 33.2836
3.28257 10.2341 34.0981
2.01556 6.90179 16.4674
2.18197 14.7109 68.326
4.81171 14.6718 32.5816
1.61771 3.31177 21.4141
1.29356 1.72687 22.9541
2.00572 6.48756 29.0179
2.57229 8.85428 16.2633
1.73873 10.5222 46.0431
3.38425 13.8207 31.109
1.8764 13.35 57.371
3.79 11.2213 40.5142
2.9992 9.91941 57.0446
4.04427 10.5591 36.6972
3.078 13.9288 57.7481
4.74721 10.3918 24.0043
2.00569 7.12544 24.4468
1.63503 6.87322 39.6333
2.1905 8.01115 20.2252
0.765535 4.75808 31.0571
2.24715 6.08768 37.9651
4.07023 13.6096 17.0343
0.880733 6.97645 40.8595
3.13073 11.3861 44.3467
3.15049 8.22191 8.96684
0.63219 4.51454 24.558
1.91811 6.44471 21.5954
1.22564 7.50983 50.9615
3.33846 8.33951 36.729
2.74589 12.5359 57.2298
3.70056 9.96245 27.8513
2.61133 7.60496 43.1376
4.40345 11.8621 20.0643
1.69144 11.1722 21.5609
1.26952 5.41507 43.9708
3.98582 15.7615 28.2579
1.62144 11.1923 65.9057
3.75454 10.4017 51.3046
4.26398 10.3992 13.0878
1.11195 7.81391 19.9413
1.10139 4.95051 55.8166
5.22335 17.549 33.6693
2.33342 15.4286 67.0428
4.52914 9.83041 28.1498
1.87245 4.15065 19.4049
1.82676 11.3855 46.6064
3.50814 7.48041 28.1859
2.20715 10.7935 47.6068
3.33789 12.3726 35.7601
1.98537 7.33831 41.3417
3.54744 11.4912 26.1201
1.77031 8.44984 24.5816
1.8991 10.2812 44.4647
2.3721 5.54526 16.7504
1.3796 8.55934 39.1765
3.4326 10.4887 25.0871
2.04504 12.1928 28.2604
1.7178 5.90563 29.9212
2.0422 9.87896 58.482
4.15452 10.3585 12.5719
0.666391 3.2243 20.0101
1.55875 8.37224 51.1758
3.53734 18.4303 60.0822
3.54621 9.967 41.6545
2.27697 5.47792 32.6314
3.02428 9.01078 21.5505
1.66633 5.02893 19.8796
1.34902 3.97022 17.3652
1.74404 10.9137 57.6099
3.43359 13.7856 36.8765
2.93821 8.86068 26.6091
1.392 8.77422 34.6797
2.32332 12.332 44.47
2.81941 9.92347 42.9579
2.55783 4.98157 26.016
2.30475 6.49369 21.5586
1.83307 5.12116 25.7503
2.36594 11.4742 17.1398
0.979038 7.21727 32.2956
2.65156 14.6535 92.0861
5.38963 9.17573 20.9965
1.94091 6.36943 29.828
2.53537 14.3554 50.7273
3.63595 8.80375 32.4686
2.93207 5.1112 26.2486
2.02214 8.47999 32.7388
2.74527 15.2273 59.259
4.3408 14.24 36.7595
2.41912 9.75331 15.7569
0.975737 7.4121 30.0788
1.668 3.08003 25.351
2.10321 7.22983 33.6314
2.54386 4.65504 29.8079
2.52227 10.1268 23.1068
1.3237 5.87902 50.8828
3.56034 5.37018 12.4912
0.906453 4.04586 13.969
0.860984 3.37024 39.5181
3.457 14.8146 82.8449
6.73174 21.3696 47.8075
3.25147 12.9655 34.2987
2.15632 8.42026 49.0951
4.21174 10.6218 21.7941
1.80693 11.0364 35.5796
2.21019 13.0246 38.12
2.30543 5.18342 32.1943
1.99447 9.06946 39.7955
2.49251 8.32898 29.9693
2.33463 4.92206 13.4806
0.903411 3.09713 36.1133
3.07211 9.58164 17.3636
0.685205 5.41765 38.6479
3.12034 16.0993 52.1317
3.27204 9.38856 32.3138
1.90343 9.40802 51.2393
3.35694 9.30796 39.7663
3.17323 22.0297 65.3648
3.77919 9.69868 25.3984
1.69522 13.7128 63.0617
4.6722 6.21658 16.8824
1.24118 5.15102 44.6391
4.15155 7.04257 21.7679
1.93348 11.282 36.5199
2.68815 8.58022 51.0332
3.74336 14.4213 33.9617
2.41036 8.47989 21.8617
1.46789 5.724 39.5657
2.97484 8.10404 35.6237
2.38588 5.64186 16.8755
1.11473 11.6417 58.1765
3.72942 16.6921 43.7485
2.98259 10.2847 39.5849
2.20475 9.91967 37.9423
2.61733 9.06757 48.192
3.78445 13.3649 29.8606
1.9124 5.24775 15.1687
1.08228 3.03418 25.0159
1.60232 9.03912 74.7675
5.49965 15.2538 32.9745
1.80399 8.33479 37.3907
2.41381 7.00061 15.1981
1.10068 3.31193 10.4248
1.04842 5.92149 26.9942
1.85861 7.08149 33.0778
2.20694 9.26962 31.449
1.93778 7.38085 41.8997
2.38876 6.92388 34.7905
2.95004 8.64258 19.9481
1.29791 5.50355 50.7176
3.63684 12.705 41.6997
3.26177 9.20383 14.5435
0.889743 7.48084 26.5345
1.45999 13.8173 65.9389
3.94861 12.2321 50.8752
3.2029 14.9541 29.8835
1.9522 5.42447 34.0795
2.38343 7.90542 26.7526
1.96215 3.41198 26.7718
1.96912 11.1452 31.3454
1.51109 4.55921 18.9679
1.60018 6.27275 22.1767
1.74937 4.72659 17.8533
1.22344 4.10329 24.6254
1.71334 8.34861 35.7877
1.85948 5.51942 34.9388
2.67811 9.05578 40.1617
3.01214 14.3764 50.9273
3.42895 14.4541 79.8133
4.80408 12.49 29.7225
2.19774 8.91238 39.4353
2.63491 9.35732 17.8144
0.965223 4.56198 29.0254
1.67746 10.7708 27.4568
1.96454 7.04772 40.7986
2.51063 9.15427 39.4849
2.41308 9.98582 38.4534
2.69609 9.52632 25.8798
1.65263 7.84071 44.4245
2.56769 8.32098 12.626
0.871335 4.36606 33.1593
2.19504 4.93724 22.4467
1.15531 3.65637 27.7554
2.41406 16.2089 46.2522
3.6383 9.546 28.3516
2.0397 14.7302 64.2138
4.09249 8.73727 36.0628
2.27188 4.0063 33.3178
2.33829 8.66482 24.1304
1.49361 7.823 33.451
2.30719 7.20141 35.1663
2.0939 9.54229 31.5763
1.80039 4.15446 19.7648
1.17976 6.83713 23.642
1.70377 2.30308 10.4363
0.701565 7.46026 25.586
1.87755 2.25347 9.58544
0.768193 8.78957 29.4696
1.80579 4.66137 22.4099
1.60198 5.89115 29.4524
1.86509 5.21219 28.1978
1.73696 7.37911 9.46883
0.67783 9.76597 48.2528
2.94758 8.08162 19.7309
1.44179 7.66122 52.8262
3.79631 11.4235 24.8252
1.92946 10.2234 63.3881
4.29383 7.7446 13.9225
0.863224 6.38808 32.3236
2.14703 8.56996 27.1156
1.36242 3.41703 16.1656
1.56764 5.44903 40.5326
2.80895 9.32906 24.1664
1.24233 8.42638 27.2912
1.67964 9.74909 54.9173
3.21297 11.5658 34.0908
2.65163 3.99104 16.3511
1.3117 5.55458 26.3124
1.76571 10.1232 24.5387
1.48178 5.64028 29.255
2.22347 6.05731 40.9498
3.00347 12.3041 50.9893
3.14206 12.1023 25.1286
1.83401 5.24377 14.3542
1.2601 6.43946 48.7585
3.36001 6.74609 30.5111
2.28071 7.55564 16.9009
1.10693 5.60002 28.2826
2.1139 11.9602 37.0532
2.09847 2.79546 23.5777
1.47376 4.79228 46.8967
3.38031 19.2733 41.378
2.67266 8.4991 25.5616
1.70422 16.7622 49.276
3.23346 5.50685 27.4402
1.75649 12.789 63.4727
4.49436 12.768 40.0559
2.53282 12.3608 22.9705
1.85595 9.2637 45.9285
3.36411 10.0416 39.8649
2.37814 4.7935 35.8937
2.53876 10.0999 26.5538
1.39408 8.83015 41.1622
2.90679 14.2619 47.6079
3.00367 9.26868 30.8457
1.91481 7.24104 26.0715
1.48685 8.8525 54.074
3.84389 8.75009 16.3884
1.13775 6.29478 36.6231
2.96913 6.84866 24.199
1.75879 4.91034 10.8752
0.522103 2.06369 17.7876
0.971968 3.16708 16.1244
0.817585 8.90919 25.6498
1.6558 4.97438 14.5178
0.676898 10.2944 55.7795
3.94503 6.19002 33.9655
2.11067 11.0757 44.9195
3.19372 4.61168 12.1396
0.892995 0 0