# pn-170911/RbIIF-62-RbIIR-1280-1959.psd
# Power spectrum* (dif=0,1,2) (really just |FT|^2)
# NOTE: only the first half! (symmetric)
# weeks: 1280-1959
# 2461 clock-days, 66 excluded
# PSD: 1441
719.857 0.0562953 0.0201906
29001.5 0.496257 0.0110895
156765 3.25632 0.0112137
23563.3 0.888535 0.0112349
78841.3 5.91477 0.0115141
7948.98 0.748875 0.0110936
8257.65 1.22177 0.0113283
4119.85 0.767417 0.0112296
4225.2 1.0706 0.011176
2416.98 0.752164 0.0112728
2378.33 0.938582 0.0118867
1633.64 0.781658 0.0110803
1661.07 0.931194 0.0116079
1210 0.784017 0.0117387
1129.13 0.871832 0.0115483
938.158 0.833875 0.0117233
861.212 0.886313 0.0120054
757.653 0.877733 0.0124138
729.277 0.927287 0.0125311
626.915 0.869875 0.0126629
576.119 0.931349 0.0129033
549.588 0.976291 0.0131559
514.097 0.980333 0.0132411
492.938 1.03894 0.0138742
457.256 1.04163 0.0139316
407.644 1.02215 0.0142082
374.031 1.03591 0.0142583
371.06 1.1106 0.0148807
354.213 1.14331 0.0151734
336.227 1.18177 0.0160247
329.794 1.23748 0.016518
305.41 1.18998 0.0164281
300.974 1.25756 0.0174598
282.072 1.30178 0.0178113
282.998 1.36526 0.0190678
275.804 1.40788 0.0191188
247.201 1.3178 0.0190572
245.217 1.43117 0.0197378
245.69 1.52379 0.0220507
247.606 1.55394 0.0225856
224.136 1.50804 0.0228073
215.602 1.57239 0.0239151
215.089 1.62748 0.0246827
217.88 1.71575 0.0258154
218.102 1.78294 0.0271307
201.806 1.74896 0.028143
195.998 1.78078 0.0293484
201.365 1.93367 0.0316966
204.25 2.03288 0.0341226
185.669 1.95845 0.0335903
192.613 2.08821 0.0357015
190.423 2.15196 0.0378432
187.108 2.22849 0.0389084
179.278 2.22234 0.0414116
192.277 2.48585 0.0466318
178.657 2.43507 0.0468176
172.907 2.37843 0.0467898
170.808 2.41748 0.0488077
170.635 2.53724 0.0517028
177.468 2.75924 0.0572066
170.156 2.69848 0.0564424
162.259 2.68091 0.0588882
163.849 2.80972 0.0627588
162.61 2.88824 0.0666783
166.183 3.00671 0.0709464
164.193 3.10055 0.0742441
160.265 3.09765 0.0758401
156.915 3.1708 0.0791166
157.272 3.2723 0.0833105
152.393 3.27278 0.0863077
146.553 3.25955 0.0878227
147.756 3.38083 0.091565
145.045 3.38428 0.095813
144.74 3.49697 0.100783
139.953 3.45728 0.102332
149.519 3.82375 0.113812
142.618 3.79539 0.115829
146.193 3.86345 0.119256
139.798 3.86288 0.123745
138.833 3.95891 0.128762
138.439 4.04905 0.136098
145.095 4.29096 0.145241
142.033 4.37578 0.150466
137.122 4.25776 0.150429
139.407 4.41624 0.160934
136.978 4.51888 0.167313
137.588 4.67426 0.177155
132.028 4.55996 0.175213
129.72 4.58479 0.180527
140.047 5.06283 0.20182
135.594 5.00051 0.204212
130.238 4.98393 0.207243
129.202 4.98325 0.21094
132.795 5.23919 0.224507
128.883 5.16162 0.227381
128.081 5.2491 0.235451
128.068 5.45864 0.250276
126.915 5.44276 0.254849
128.435 5.67329 0.270387
120.325 5.43131 0.265195
126.692 5.80118 0.287158
121.116 5.62586 0.282069
122.449 5.81538 0.299431
125.061 6.08866 0.31855
125.053 6.12353 0.327375
119.931 6.03564 0.330191
120.929 6.21384 0.344223
116.659 6.16902 0.345302
116.847 6.29571 0.362701
120.406 6.61294 0.388726
119.262 6.56138 0.387649
116.531 6.59183 0.398739
115.101 6.66889 0.406017
118.012 6.99325 0.432522
118.938 7.1568 0.450568
116.428 7.10108 0.461276
113.074 7.07268 0.464445
118.198 7.44362 0.491686
112.936 7.28185 0.49432
110.625 7.21963 0.492684
112.255 7.43358 0.519878
113.435 7.75863 0.551822
110.48 7.47344 0.537928
109.781 7.70385 0.567226
112.476 7.9568 0.5927
109.656 7.92619 0.603194
112.362 8.21465 0.632858
106.824 7.95736 0.617659
106.413 8.08959 0.639456
106.813 8.15739 0.650521
102.248 7.98598 0.651389
104.364 8.29738 0.691949
104.204 8.4854 0.711327
105.185 8.55986 0.726621
102.894 8.51735 0.733061
105.322 8.87671 0.779123
104.583 9.00031 0.798514
101.702 8.79988 0.792027
99.941 8.83149 0.806234
99.4777 8.83754 0.822758
106.072 9.5392 0.893532
102.155 9.41315 0.896746
101.175 9.45135 0.918458
99.5755 9.49898 0.935338
100.335 9.54572 0.943077
99.2621 9.68679 0.967854
93.3624 9.21696 0.941505
97.5913 9.7527 1.00454
92.4296 9.36454 0.990491
100.311 10.3075 1.09291
96.3068 10.0171 1.07467
95.8578 10.0416 1.09995
92.8774 9.90938 1.08447
97.2361 10.555 1.18562
89.7558 9.8508 1.11748
95.013 10.5528 1.21352
92.9954 10.4646 1.21466
91.7988 10.4748 1.22658
93.8223 10.7867 1.27552
98.9406 11.5739 1.39316
95.9091 11.4532 1.40579
87.8957 10.537 1.31087
88.8797 10.8011 1.34235
92.1665 11.2154 1.40545
92.0909 11.4446 1.4619
90.3304 11.3766 1.47479
86.192 11.0116 1.45276
87.0627 11.2429 1.48204
88.1268 11.4604 1.52684
88.0332 11.6906 1.59021
88.2105 11.8295 1.62462
88.5621 11.9399 1.65118
87.051 11.9426 1.67388
88.0648 12.1938 1.73343
87.9811 12.2075 1.74563
84.5182 11.9291 1.73566
85.0045 12.1989 1.78809
85.0662 12.3454 1.83984
81.7291 11.9536 1.79403
81.5354 12.0722 1.83833
79.8452 11.9789 1.83628
83.3282 12.5064 1.92187
81.0851 12.5217 1.97222
82.2433 12.6981 2.00914
79.3442 12.4144 1.99604
82.5277 13.0776 2.11899
82.9486 13.3177 2.18346
82.5481 13.272 2.18258
80.5375 13.1256 2.20346
82.9886 13.6323 2.28312
78.8534 13.1221 2.22997
78.3403 13.3638 2.3223
80.1271 13.5444 2.35349
78.804 13.4324 2.34046
77.2007 13.4333 2.40388
76.2051 13.4293 2.40238
78.3039 13.7755 2.49414
75.2629 13.4726 2.45929
77.2936 14.0874 2.59775
75.2687 13.7337 2.57065
74.7394 13.839 2.62915
75.1873 14.0185 2.66204
75.8231 14.2695 2.76459
74.716 14.1344 2.73434
74.9205 14.3624 2.7999
74.4068 14.462 2.86434
75.9454 14.9084 2.99243
72.4789 14.2333 2.8606
75.6217 15.0999 3.05597
70.7969 14.2666 2.9333
72.4016 14.7189 3.05435
71.5166 14.6117 3.04065
71.3656 14.8595 3.15138
69.4676 14.5774 3.12562
69.9205 14.7829 3.18034
70.8021 15.1988 3.29115
68.9572 14.7906 3.22413
70.2907 15.2732 3.37018
69.3852 15.2549 3.40502
68.767 15.1379 3.3869
67.4624 15.0094 3.4183
66.5321 15.0696 3.46911
69.6017 15.6977 3.61693
67.6742 15.4825 3.62748
66.3991 15.3877 3.61548
67.716 15.6621 3.69025
65.0437 15.2947 3.66662
65.643 15.5779 3.75897
66.3639 15.822 3.85795
65.5728 15.8522 3.89096
64.4154 15.5922 3.8399
64.5704 15.8199 3.9562
66.0315 16.3507 4.11117
65.5745 16.2611 4.12054
62.3574 15.6878 4.01593
63.2458 16.089 4.18316
62.2853 15.8469 4.11141
63.9417 16.4221 4.30581
62.752 16.3104 4.30106
64.1437 16.9124 4.53314
63.9585 16.9653 4.57825
61.3602 16.2074 4.36774
61.0936 16.4246 4.50944
59.0247 16.0008 4.40987
60.0715 16.3922 4.5573
63.1631 17.3269 4.84947
58.3691 16.2875 4.59984
60.5761 16.8631 4.80271
61.9272 17.2798 4.90802
59.5679 16.9554 4.92058
59.573 17.202 5.04973
61.3064 17.7289 5.24798
59.704 17.1344 5.02686
60.5024 17.7876 5.31335
59.3564 17.5926 5.29863
59.1398 17.4938 5.24935
57.2453 17.2752 5.27399
57.6383 17.4092 5.35129
58.3379 17.6239 5.41931
57.1224 17.8229 5.58996
56.2297 17.2449 5.40546
57.4589 18.0553 5.72938
58.3357 18.2208 5.78973
55.2862 17.5883 5.65903
55.4298 17.5351 5.63644
55.2073 17.782 5.80494
55.2913 18.0493 5.94782
54.6784 17.9166 5.89963
54.7308 18.0226 6.03606
53.9451 17.6732 5.91612
53.7241 17.936 6.11924
56.3106 18.6567 6.27914
53.1886 18.0419 6.24012
55.0592 18.6802 6.43991
53.7543 18.4309 6.39561
52.8311 18.1834 6.35959
52.724 18.4546 6.49765
52.035 18.0246 6.37211
50.4152 17.7537 6.35716
51.762 18.3929 6.63314
51.3491 18.2885 6.58917
50.7756 18.3037 6.68204
52.3134 18.967 6.97774
50.2001 18.3464 6.80368
49.338 18.0532 6.75414
51.0359 18.8459 7.08404
52.1155 19.3047 7.27413
51.3737 19.2987 7.33685
51.1819 19.4105 7.41539
48.1048 18.2564 7.07883
48.5793 18.6144 7.26714
49.9836 19.1255 7.39628
46.814 18.2378 7.22751
48.3788 18.8252 7.4311
47.9656 18.9267 7.58749
46.5001 18.373 7.33534
47.6041 18.9538 7.62916
48.3306 19.5093 7.90974
46.3105 18.7607 7.65585
45.8871 18.84 7.83649
46.3377 18.8146 7.79837
45.2396 18.575 7.73101
46.6566 19.2235 8.05119
46.5151 19.3279 8.12405
45.9698 19.3874 8.25666
45.5774 19.2289 8.18947
45.4536 19.2841 8.28853
44.6669 19.0833 8.31341
45.9975 19.8567 8.63227
45.114 19.6152 8.62052
44.9241 19.4558 8.59244
45.2588 19.7315 8.6665
44.2113 19.5817 8.79922
44.554 19.8789 8.92223
44.197 19.6157 8.81032
43.3698 19.4965 8.8859
41.5006 18.8255 8.69779
42.8046 19.4624 9.00197
43.4946 19.6587 9.0177
42.3133 19.23 8.82822
39.8378 18.4839 8.68724
42.7236 20.119 9.52354
43.0888 20.1966 9.56563
42.4666 20.0544 9.63788
41.567 19.6796 9.39073
39.5688 18.9792 9.22036
41.6247 19.9674 9.70384
39.9852 19.4045 9.56019
42.8368 20.5919 10.0255
41.0608 20.0852 9.9251
41.0558 20.1351 9.95086
39.3285 19.5495 9.84407
40.5701 19.9193 9.97476
39.7257 19.8855 10.0827
39.9511 19.8855 10.1188
40.3382 20.3726 10.4002
38.8845 19.9646 10.3307
38.2789 19.3519 9.93684
40.0756 20.7735 10.7987
38.7651 20.1767 10.6896
39.4189 20.5209 10.8281
37.8268 19.5264 10.2804
38.0386 19.9901 10.611
37.7663 19.9922 10.6206
36.7261 19.5737 10.6218
37.271 19.7568 10.6922
38.5531 20.7818 11.3324
37.6004 20.2343 11.0042
36.9236 20.1895 11.2037
37.4913 20.5529 11.4491
36.1507 19.8213 11.0809
37.154 20.3961 11.4235
37.3546 20.6395 11.5258
37.5464 20.9993 11.8544
36.2574 20.1897 11.3664
35.5098 20.1151 11.5633
36.2498 20.3767 11.5949
35.9333 20.7376 12.0867
35.7667 20.299 11.669
34.1693 19.8939 11.7203
35.2963 20.3527 11.8525
34.1576 19.8888 11.7513
35.1636 20.7738 12.3683
34.4711 20.1092 11.9285
34.7528 20.7299 12.4966
34.7264 20.1564 11.9604
35.2819 21.1705 12.7276
33.5386 20.369 12.4608
32.6668 19.6379 12.0561
34.491 20.9238 12.78
33.3837 20.0491 12.2444
33.0663 20.5275 12.8172
32.6723 20.2234 12.6441
31.5634 19.5781 12.426
33.8475 21.1873 13.4451
33.9578 21.084 13.2979
32.8804 20.5316 13.0872
32.0539 19.9729 12.6403
31.9222 20.301 13.1015
32.1084 20.7561 13.5241
31.7294 20.2296 13.0917
31.2739 20.08 13.0999
30.3613 19.6461 12.9426
32.5695 21.1925 13.9292
30.5839 20.2 13.5508
31.1479 20.3622 13.5252
31.7053 20.8298 13.9068
31.654 20.9227 13.9877
32.1149 21.3938 14.4033
30.5705 20.5812 14.0091
31.2456 21.3175 14.7142
31.4567 21.0801 14.3509
29.9514 20.4763 14.2174
30.1846 20.4558 14.0136
29.8626 20.712 14.6169
31.4293 21.2806 14.6073
30.7805 21.4062 15.0026
29.6245 20.4666 14.3594
29.8531 20.8559 14.7053
28.2282 19.9588 14.2887
28.6842 20.4182 14.6774
28.8044 20.5081 14.7816
29.4678 20.8451 14.8919
28.3292 20.5614 15.0798
28.0351 20.1268 14.7771
29.4985 21.2484 15.4275
28.267 20.5493 15.1572
28.4601 20.5834 15.0976
28.867 21.3834 15.8557
27.3938 20.2052 15.1761
26.813 19.6182 14.6879
28.1585 20.7169 15.2837
26.3859 19.861 15.1485
27.0708 20.3518 15.4261
26.9479 20.4042 15.6444
27.2102 20.6585 15.7592
27.028 20.5463 15.8537
27.2664 20.6965 15.9546
26.8826 20.529 15.8022
27.0174 21.2594 16.808
27.0105 20.9309 16.5919
27.5549 21.3041 16.7865
27.3519 21.1814 16.5896
26.0912 20.3099 16.0121
26.2901 20.7256 16.5328
25.6968 20.2245 16.1592
26.7694 20.9481 16.6395
25.4065 20.3178 16.5719
27.2203 21.5646 17.3067
25.3929 20.3068 16.4429
25.4462 20.5824 16.7663
25.1379 20.5173 16.8829
25.0918 20.4952 16.8957
25.0866 20.6694 17.2007
24.903 20.2592 16.7761
24.9399 20.7306 17.4218
25.4447 21.2467 18.0258
25.1513 20.6511 17.2155
24.2683 20.2643 17.1727
24.3786 20.3388 17.1626
24.1029 20.7761 18.0977
25.6573 21.5057 18.2086
23.7295 20.1026 17.3562
24.6862 21.2488 18.43
24.9127 21.3761 18.4114
23.311 20.308 17.8885
23.7971 20.5938 18.1312
23.7547 20.655 18.2622
24.0332 20.9078 18.472
24.0517 20.9201 18.3742
23.4913 20.4914 18.0896
23.4117 20.8352 18.6454
23.3594 20.8131 18.6905
23.4308 20.8249 18.8121
22.8431 20.1844 18.0474
22.8162 20.6343 18.779
22.5861 20.4822 18.8351
23.3136 20.9424 19.0141
22.519 20.3994 18.7403
22.4002 20.3093 18.6314
22.4664 20.6607 19.277
22.8269 20.7808 19.2643
22.8562 20.8779 19.335
22.1422 20.5165 19.0849
22.0362 20.836 19.9282
22.6066 20.7948 19.3575
21.6283 20.3872 19.3425
22.471 21.6364 20.8386
21.8195 20.4831 19.8275
22.508 21.1205 20.1406
21.727 20.5638 19.6612
21.7214 20.901 20.2496
21.5858 20.4972 19.6055
20.4986 20.1777 20.1191
22.2461 21.1361 20.457
20.8756 20.093 19.8547
21.3471 20.5736 20.0761
21.1971 20.9013 20.8344
21.2916 20.8351 20.6397
20.5317 20.1395 19.9479
20.3054 20.2263 20.3567
20.8174 20.8145 21.0287
20.466 20.216 20.3343
20.957 21.1118 21.3219
20.7806 21.1371 21.9186
21.2959 21.0444 21.1834
20.0938 20.2294 20.7089
20.3697 20.4466 20.6625
20.1761 20.8662 21.6766
20.5487 20.8176 21.2392
19.6385 20.4888 21.5631
19.9153 20.5989 21.3969
19.3149 20.2847 21.7452
20.0044 20.5319 21.4835
20.6557 21.3518 22.0748
19.4698 20.7015 22.2785
19.9595 20.7607 21.8804
19.047 20.0055 21.4056
19.0641 19.845 21.0847
18.9317 20.1349 21.6613
18.9225 20.1532 21.6972
19.1338 20.4031 21.8502
18.4317 19.9557 21.899
18.9719 20.1435 21.6602
18.2194 19.8157 21.7813
19.1698 21.2575 23.788
19.1774 20.2848 21.7904
17.8625 19.7651 22.1299
18.5201 19.9556 22.0422
18.75 20.5071 22.5925
18.8393 21.1119 23.6793
18.4705 20.28 22.6258
18.0766 20.3428 23.1722
18.2888 20.0731 22.4565
18.3224 20.7973 23.6725
18.0522 19.9485 22.4158
17.4357 20.0389 23.1092
18.0458 19.9776 22.7886
17.8473 20.1937 23.1247
17.3585 19.4801 22.0697
16.9602 19.6043 22.9482
17.9188 20.5284 23.5693
16.9848 19.628 23.0713
17.6528 20.5313 23.932
17.0114 19.7299 23.3898
17.9162 20.6173 24.0134
17.1879 19.6376 22.9866
16.7805 19.6447 23.0744
16.5586 19.8325 23.8659
16.9672 19.8729 23.8052
16.2806 19.0156 22.6923
16.1329 18.9815 22.9235
17.2008 20.3925 24.2639
16.6838 19.8506 24.0512
17.3938 20.8813 24.921
16.528 19.9476 24.4462
17.0513 20.7398 25.4985
16.7106 20.0316 24.5382
16.7584 20.1573 24.6925
16.7532 20.6268 25.6348
16.435 19.5809 24.145
16.5651 20.258 24.8182
15.6305 19.1568 24.2027
16.2627 19.9014 24.5207
16.0355 19.8233 24.7021
15.6566 19.4003 24.3642
15.7095 19.5341 24.6831
15.8423 19.642 24.8532
15.8927 19.7186 25.0144
15.9564 19.6502 24.2943
15.3129 19.5352 25.0485
15.5013 19.7109 25.2841
15.0108 18.6088 23.5336
14.2644 18.4139 24.1163
15.411 19.8004 25.536
14.8594 18.8992 24.4007
14.0834 18.1534 23.881
14.5897 18.7356 24.4718
15.2365 19.8894 25.8424
15.0639 19.6166 25.7488
14.865 19.3902 25.5068
15.0495 19.6269 25.8199
14.5744 19.0234 25.3519
14.8038 19.503 25.7353
14.3137 19.1425 25.9753
14.6109 19.2265 25.8447
14.5532 19.2507 25.6411
14.1486 18.7774 25.4327
14.4517 19.489 26.6517
14.5867 19.0696 25.5939
14.7577 19.8606 26.8219
14.4495 19.4981 26.6786
14.1625 18.9342 25.8573
14.4273 19.6487 26.7695
13.9849 19.0607 26.5165
14.1871 19.5132 27.2979
14.5408 19.5139 26.8962
14.9242 20.3364 27.6911
14.4727 20.1695 28.1484
14.5129 19.8578 27.4445
14.0844 19.6344 28.0143
14.269 19.572 27.0877
13.3755 18.77 26.8987
13.7977 19.1392 26.9938
13.0769 18.2504 26.5036
13.9536 19.045 26.6589
14.237 19.8806 27.799
13.6112 19.2149 27.3773
13.4336 19.0846 27.4674
13.6968 19.4723 27.7943
13.2312 18.9665 27.3218
12.6499 18.099 26.3499
12.6499 18.0974 26.5708
12.9935 18.4011 26.3956
12.8212 18.5274 27.1643
13.1804 18.9785 27.77
13.2894 19.0322 27.6257
12.9281 18.961 28.0361
13.3362 19.3922 28.3694
12.4467 18.0307 27.0109
13.204 19.2045 28.1489
12.6648 18.5715 27.6821
12.9693 19.1863 28.6617
12.8347 18.883 28.4294
12.6248 18.4434 27.6683
12.7117 18.9723 28.6471
12.4683 18.4019 27.7583
12.7071 18.8203 28.022
12.3037 18.6297 28.6751
12.5718 19.0446 29.2821
12.5079 18.3265 27.6985
12.2971 18.5172 28.0383
11.8311 17.8522 27.6007
12.1766 18.5036 28.5439
11.9946 18.103 27.7722
12.0448 17.9351 27.0245
11.7844 18.2352 28.1739
12.1741 18.8605 28.7676
11.3642 17.86 28.6707
11.9731 18.051 27.9735
11.6242 18.2054 29.0927
12.4281 19.3561 30.2725
11.9248 18.3688 29.2755
12.2075 18.7233 29.0023
11.9748 18.8208 29.5644
11.9415 19.2148 30.7082
11.8699 18.4697 29.0927
11.185 17.8802 28.9937
11.1453 17.2926 27.7479
11.3044 18.0047 28.9101
11.4074 17.8731 28.7286
11.6662 18.7078 30.0843
11.1788 17.6633 28.3851
10.8943 17.5729 28.6607
11.2562 18.099 29.4827
11.4123 18.4134 29.8537
11.5546 18.96 31.2931
11.577 18.1393 29.0534
11.088 18.302 29.6485
10.2581 16.9959 29.1549
10.8633 17.2532 28.3828
10.9177 18.3609 31.1489
11.6412 18.9186 31.3466
11.3324 18.2782 29.696
10.9243 18.0896 30.0868
10.9475 18.1712 30.2541
10.9299 18.2046 30.2364
10.4168 17.366 29.2793
10.4038 17.5691 30.0819
10.7021 17.9822 30.3044
10.5457 17.861 30.6723
10.4751 17.3281 29.8657
10.9022 18.3918 31.2756
10.9942 18.6628 31.6854
10.4753 17.7937 31.2232
11.0692 18.3536 30.9445
10.6723 18.1806 31.2738
10.5782 17.7197 30.6647
10.9853 18.8218 31.9882
10.461 18.0617 31.502
10.1876 17.7134 31.4077
10.2479 17.0716 29.3526
10.2732 17.8065 31.1186
10.3091 17.8411 31.2821
10.2191 17.6287 31.0449
10.4332 18.1583 31.4396
10.0607 17.7802 32.0083
10.4926 18.2483 32.1683
10.1668 17.8523 31.9324
10.2151 17.8531 31.612
10.1152 17.5717 31.134
9.97649 17.6 31.5345
10.0612 17.5129 30.9094
10.3368 18.6801 33.1144
9.94307 17.8219 32.3366
9.95199 17.8335 32.2567
9.56391 17.0899 31.4331
9.95471 17.6562 31.5813
9.44622 17.1584 31.6037
9.69664 17.3946 31.6806
9.61878 17.5114 32.3161
9.7844 17.6188 32.107
9.66086 17.2132 31.2782
9.65102 17.5293 31.8871
9.41547 17.2329 31.8135
9.32696 16.7921 31.2275
9.47509 17.2698 31.7291
9.52938 17.6733 32.7231
9.14247 16.7441 31.4402
9.5014 17.5893 32.5876
9.27086 17.1325 32.4323
9.33512 16.9078 31.3329
9.10453 16.8968 31.4816
8.86581 16.8207 32.5459
9.33408 17.2589 32.609
9.20517 16.9996 32.5032
9.35146 17.3399 32.4479
9.16653 17.16 32.3472
9.23477 17.4015 32.5158
8.92977 17.1046 33.3101
9.05413 16.827 32.4153
9.04624 16.6939 31.399
8.84759 17.0237 33.2264
9.2963 17.766 33.9123
8.88714 16.6829 32.3004
9.03746 17.2308 32.7367
8.60398 16.4814 31.8432
8.39589 16.1254 31.826
8.6433 16.6289 32.5532
8.59659 16.4623 32.2985
8.80476 16.7826 32.3403
8.61141 16.9325 33.1204
8.30524 16.002 31.7611
8.85613 17.6658 34.72
8.55802 16.6027 33.4406
8.70818 16.5793 32.6409
8.6614 16.8671 33.5144
8.574 16.658 32.8623
8.42472 16.6199 33.3074
8.66858 17.1278 34.3838
8.44618 16.4493 33.0488
8.49306 16.6781 33.7509
8.53851 16.5791 33.0481
8.43808 16.552 32.5735
8.27509 16.6772 32.7561
7.63789 15.6665 33.493
8.44525 16.2138 32.3338
8.33521 16.7215 33.3711
8.32117 16.9241 34.241
8.18714 16.3702 33.0866
8.04651 16.3749 33.1545
7.82424 15.9926 33.4726
8.23413 16.615 33.4358
7.67175 15.4544 32.2645
7.86354 16.0718 33.3051
7.77084 15.8752 33.7546
8.23262 16.5575 33.3998
7.62982 15.641 32.927
7.66092 15.4668 32.5332
7.75579 15.7441 32.6132
7.89009 16.1517 32.7706
7.4556 15.4797 32.3937
7.49196 15.5909 33.2757
7.70879 15.7348 32.9886
7.65636 15.6903 32.2527
7.29398 15.3784 33.1677
7.65167 15.7457 33.5803
7.89054 16.2384 32.9893
7.29105 15.7254 33.7595
7.43097 15.6599 33.2048
7.57189 16.0554 34.3511
7.44471 15.388 32.7429
7.27146 15.4085 32.9771
7.26832 15.4727 34.1073
7.76285 16.0543 34.0976
7.64943 16.1824 34.0486
7.03629 14.7809 31.7258
7.10772 15.5212 33.1828
6.90763 14.7895 32.4784
7.04888 15.1775 33.0876
7.16684 15.3715 33.6404
7.15737 15.3306 33.3532
7.20848 15.414 33.6427
7.03294 15.1015 32.96
7.02192 15.3243 33.9832
7.24508 15.7525 34.6296
7.12392 15.2159 33.7001
7.24236 15.4212 33.4113
7.11014 15.8386 34.9319
7.04266 15.1883 33.7191
7.08286 15.6493 34.7372
6.80857 14.7488 33.3552
7.03725 15.3274 33.8894
7.02022 15.2935 33.5573
6.9608 15.4445 33.6771
6.68814 15.1066 34.1766
6.73633 14.9513 34.3653
7.01738 15.4403 34.8806
7.02156 15.4517 34.2569
6.76146 14.994 33.8194
6.70711 15.0806 35.1678
7.15951 15.5505 34.301
6.65564 14.6869 32.8179
6.54162 14.8389 34.0049
6.53809 14.6103 33.6407
6.79845 15.4084 34.852
6.75829 15.2436 34.4012
6.32022 14.1851 33.1898
6.70075 15.3916 35.8341
6.85831 15.1944 34.0428
6.49421 14.9489 34.6631
6.49356 14.565 33.9465
6.76452 15.4989 34.8413
6.44669 14.5152 33.1697
6.43658 15.1987 35.6793
6.60074 14.9751 34.2003
6.16106 14.3199 33.8959
6.34633 14.9711 36.4365
6.91487 15.3403 34.3698
6.25084 14.6608 35.2115
6.54612 15.0008 34.9531
6.26376 14.219 33.2942
6.37049 15.1222 35.417
6.34839 14.5844 34.1082
6.14841 14.5801 34.8445
6.24252 14.4022 34.7176
6.392 14.6337 34.7644
6.52961 15.0806 34.5616
5.96035 14.1395 34.0939
6.20621 14.8632 35.4598
6.02048 13.916 33.5098
6.03448 14.3858 35.0253
6.26887 14.6259 34.6443
6.19 14.5887 34.6073
6.0706 14.6013 35.5405
6.15634 14.497 35.2253
6.18279 14.9767 36.8998
6.38961 14.8449 35.2995
6.06172 14.4037 34.8874
6.13142 14.9199 36.1849
6.17523 14.833 36.6081
6.25869 14.862 36.0258
6.01538 14.5083 36.38
6.21997 14.5777 35.5662
6.12266 14.6887 35.8997
6.08505 14.4164 35.0534
6.19299 15.2901 37.2175
6.1126 14.8381 36.0881
6.03782 14.8554 36.8171
5.99128 14.5056 36.086
6.06117 14.8745 37.1006
6.14223 14.8723 36.8017
6.15384 15.1258 37.5176
5.96102 14.4848 35.9699
6.0213 15.0621 37.5686
6.06034 14.8785 37.6166
6.14553 14.7733 36.6659
6.14218 15.3401 38.1628
6.02486 14.6995 37.1642
6.14774 15.1413 37.2371
6.00864 15.1853 38.3688
6.08268 14.9608 37.0959
5.76197 14.3565 36.3399
5.72219 14.4028 36.9923
5.92464 14.7668 37.7136
6.00327 15.1234 38.3397
6.14561 15.6845 39.569
5.96467 14.8911 38.281
5.88598 14.4704 36.2917
5.60273 14.4257 38.2292
6.01795 14.9907 38.3275
6.00678 15.2856 39.3145
5.97898 15.1337 40.0321
6.43215 16.0299 40.4399
6.07054 15.082 38.3869
6.00647 15.5353 40.1642
6.11028 15.5826 40.0991
6.02733 15.124 39.0834
6.05534 16.0076 41.419
6.13832 15.7952 41.6823
6.24673 15.6845 40.0997
6.05152 15.8458 40.9256
6.08994 15.9551 42.3812
6.17339 15.8327 42.1878
6.38211 16.1521 41.6868
6.06433 15.3767 39.4073
5.69638 14.8109 38.8715
5.63963 14.7442 39.2417
5.7022 14.3497 37.0009
5.48515 14.5803 38.6013
5.52202 14.3741 38.1272
5.41172 13.7709 36.5878
5.5832 14.8754 39.1157
5.51665 14.3171 38.2299
5.46836 14.0919 36.9609
5.3706 14.3917 38.5271
5.58331 14.6942 38.1951
5.29099 14.1585 38.3198
5.35202 13.7348 36.1896
5.20297 14.2039 38.7377
5.34315 13.8681 37.6418
5.33706 14.1289 38.1925
5.42714 14.2873 38.0168
5.20078 13.8113 38.0721
5.44837 14.3351 38.6992
5.34494 14.0222 37.8575
5.3395 14.3054 38.0418
5.13528 13.5902 37.3958
5.35433 14.4556 38.7955
5.2591 13.9603 37.5707
4.95326 12.9299 35.3779
5.06635 13.9381 37.9323
5.13625 14.0716 38.6635
5.03469 13.246 36.8799
5.00797 13.5132 37.5873
5.12435 13.584 37.562
5.27331 14.3014 38.7439
5.17259 13.7008 36.6133
4.9022 13.5098 38.0306
5.04799 13.5362 36.9771
4.84895 13.1433 36.6901
4.95981 13.6902 38.1113
5.02591 13.417 36.5435
4.80687 13.4987 38.245
5.06318 13.821 38.4373
5.10376 14.1565 38.7606
4.93605 13.7384 39.5452
5.13851 13.7933 37.7104
4.82276 13.2088 37.3685
4.93788 13.4752 37.1746
4.78942 13.2122 37.0143
4.82721 13.3967 37.153
4.60113 12.6561 36.8002
4.88438 13.4976 37.3587
4.79466 13.4338 37.6584
4.71433 13.0721 37.5029
4.79788 13.0302 36.4518
4.64071 13.1491 38.423
4.89687 13.4297 37.8546
4.91999 13.9746 38.9004
4.82553 13.5837 37.956
4.7185 13.3648 38.6327
4.83519 13.5942 39.3987
4.88686 13.3533 38.4079
4.90868 13.7445 38.9032
4.83124 13.5201 38.141
4.75127 13.4715 38.6892
4.87056 13.8065 39.1732
4.68353 12.9453 37.4526
4.67122 13.4345 38.4701
4.65103 13.0535 36.9101
4.45221 13.0086 38.534
4.66671 13.13 38.0297
4.59469 13.1112 38.8699
4.74735 13.1749 37.1626
4.48254 12.8754 38.0589
4.75041 13.8343 39.2524
4.55934 12.8204 37.6234
4.47849 12.635 37.13
4.53052 12.9249 37.1926
4.39083 12.8164 38.1068
4.53139 13.1777 38.9667
4.62295 13.0628 38.3893
4.5879 13.5515 40.0543
4.60028 13.006 38.3664
4.50449 12.9127 38.5418
4.56523 12.8909 36.8998
4.32679 12.8301 38.0694
4.37509 12.4227 36.7568
4.4214 12.8446 38.2437
4.54208 13.3212 38.3655
4.37358 12.8902 38.3972
4.46088 13.0828 38.1604
4.27363 12.3964 37.4716
4.39681 13.0241 39.1614
4.42896 12.6995 37.7494
4.36016 12.6384 37.6097
4.34244 12.8344 38.1432
4.30885 12.4289 36.455
4.13309 12.4177 38.2386
4.44088 13.0956 38.2033
4.19247 12.5813 38.0471
4.26577 12.5315 37.957
4.25646 12.3933 36.6832
4.11564 12.4109 37.8727
4.25032 12.6358 38.1786
4.20987 12.4119 38.189
4.27111 12.6827 38.7203
4.295 12.4205 37.0794
4.21825 12.5717 37.9626
4.20859 12.5024 37.5567
4.21763 12.7971 39.2175
4.25447 12.5973 38.0442
4.16405 12.6162 38.9101
4.24585 12.3858 37.8161
4.20724 12.707 39.0772
4.25533 12.7064 39.0763
4.20547 12.4772 38.6869
4.21039 12.2157 36.6657
4.00394 12.0828 37.8376
4.179 12.4867 37.2924
3.99409 12.2503 37.5406
4.03048 12.4021 37.8374
4.05774 12.4492 38.3609
3.98204 11.7835 36.5035
3.91592 11.9927 37.1214
3.9838 12.4144 38.1268
4.01127 12.2436 38.373
4.04057 11.9708 36.6563
3.89008 11.7785 36.0094
3.80179 12.1155 39.2067
4.19115 12.8467 39.9642
4.13071 12.4379 38.5862
4.05344 12.4692 39.3619
4.11736 12.4712 38.6462
4.02295 12.3776 38.9284
3.93691 11.7792 37.3438
3.9622 12.3356 38.9088
4.08062 12.6181 39.6939
4.05019 12.1664 37.2657
3.85811 11.9266 37.9606
3.9855 12.4968 38.2966
3.86077 11.9983 38.3705
3.83974 11.6631 36.8795
3.8391 12.1047 38.1304
3.84917 11.9672 37.5081
3.80481 11.8606 37.2943
3.72847 11.6081 37.0374
3.70387 11.4378 36.8411
3.78454 11.7554 37.8376
3.85875 12.1892 39.1714
3.9486 12.0483 38.0588
3.82408 11.8406 37.7274
3.83864 12.2461 38.8647
3.81572 11.8545 38.0902
3.77016 11.6 37.5059
3.85766 12.2201 38.1713
3.74565 12.0653 39.7156
3.90287 12.0493 39.1764
3.90334 12.3118 38.649
3.73272 11.5905 38.0253
3.79395 11.7088 37.2952
3.68602 11.4194 36.9228
3.68943 12.0218 39.743
3.89368 12.0776 38.3103
3.72203 11.6945 36.8935
3.63573 11.8192 38.3098
3.74552 11.8802 37.9066
3.64342 11.3941 36.2482
3.52916 11.3329 37.6537
3.6975 11.8417 38.2576
3.67861 11.6849 37.7162
3.60234 11.7502 38.9252
3.80588 12.1627 38.6035
3.59863 11.5369 37.5291
3.55155 11.3228 37.6359
3.6254 11.4634 37.4341
3.49877 10.9878 36.2727
3.52325 11.3683 36.8533
3.52851 11.4804 36.9193
3.45763 11.0984 35.6531
3.34909 11.0525 37.066
3.50878 11.3608 37.7145
3.50932 11.0984 36.5745
3.50657 11.3768 36.6916
3.41404 11.0996 36.1786
3.33724 10.8736 37.0347
3.43966 10.9015 36.7835
3.43568 10.8586 35.9348
3.39183 10.9371 36.0491
3.36467 11.0124 36.654
3.42497 11.0531 37.2382
3.44315 11.3279 37.5694
3.43036 11.0671 37.0113
3.39674 11.0143 37.1314
3.49501 11.396 37.3347
3.46205 11.4095 37.3616
3.41357 11.3191 36.7001
3.22944 10.6083 36.919
3.38324 10.9067 36.1547
3.30728 10.9148 36.5233
3.28693 10.7071 36.4045
3.30963 10.897 37.5942
3.42849 10.7889 35.1949
3.26314 11.0282 36.2028
3.24433 10.9999 37.4371
3.35932 11.0835 36.5659
3.28035 10.9336 36.847
3.30754 11.157 38.5818
3.45351 11.1902 37.7174
3.41341 11.2316 36.628
3.23641 10.7428 36.4136
3.23057 10.5892 36.0786
3.26017 11.085 37.4561
3.26891 10.5712 35.8339
3.18385 10.8367 37.5297
3.35443 11.153 37.8099
3.31553 10.9198 37.8439
3.36911 10.9646 36.0626
3.15597 10.6475 37.4554
3.33415 10.901 36.3178
3.16874 10.7691 37.0861
3.24707 11.0759 37.8491
3.25087 10.5109 35.6349
3.16698 10.8192 36.8352
3.15733 10.6187 36.2721
3.16365 10.7382 36.596
3.10499 10.4765 37.1762
3.27995 11.168 37.6005
3.18574 10.613 36.8736
3.19303 10.833 37.5726
3.1865 10.4688 36.1183
3.14501 10.6949 36.6463
3.17342 10.7201 36.41
3.13332 10.7205 37.2613
3.17169 10.6941 37.6838
3.22892 10.7403 36.4495
3.07906 10.3808 35.9943
3.07937 10.6272 36.8935
3.09748 10.5625 36.9735
3.09517 10.0997 36.156
3.14367 10.7028 36.3896
3.10589 10.7583 37.202
3.09938 10.5264 36.6586
3.05523 10.2074 35.7968
3.0605 10.5204 36.6171
3.09216 10.7012 37.3526
3.16162 10.9327 38.5294
3.22229 10.8672 37.2294
3.08433 10.4886 36.7496
3.09053 10.6372 35.9997
2.93874 10.1911 36.8037
3.0811 10.5957 37.6401
3.13009 10.3179 35.6053
3.01314 10.4245 36.6694
3.05721 10.6987 37.8012
3.06835 10.1733 35.7819
3.03527 10.561 36.4521
2.98159 10.4971 36.7568
2.9881 10.3925 37.4533
3.03947 10.3776 37.2184
3.05641 10.4296 37.0152
3.01164 10.3058 36.448
2.97416 10.3217 37.2267
3.07789 10.4649 36.3533
2.95406 10.4312 37.4136
3.0982 10.6752 37.6036
3.05227 10.5151 36.3448
2.94679 10.479 36.6339
2.95785 10.4908 37.117
2.96684 10.4368 37.5944
3.00049 10.154 37.0627
3.06516 10.6432 36.6357
2.95856 10.5648 37.4536
3.00437 10.528 37.6139
2.98828 10.3546 36.9067
2.97738 10.5557 36.7684
2.89288 10.0124 37.1374
2.97704 10.5859 38.3897
3.04862 10.486 36.8614
2.90621 10.1184 36.8629
2.95528 10.5269 38.1641
3.04427 10.6098 38.1919
2.99661 10.431 37.9676
3.05775 10.6648 37.6103
2.94218 10.2127 37.8152
3.02112 10.3876 36.8448
2.95097 10.5061 37.5387
2.9784 10.7523 38.1959
2.97955 10.8229 40.6717
3.19221 11.1968 41.1031
3.22213 11.3548 40.316
3.1345 11.0045 40.3622
3.15759 11.1986 39.9976
3.08338 10.4306 36.9566
2.92 10.4856 37.0806
2.89922 10.8624 39.6493
3.02654 10.6039 38.9975
2.99634 10.4247 38.6506
2.99812 10.2353 36.8793
2.91262 10.6546 38.5618
2.9622 10.3165 37.3728
2.8968 10.2248 36.5094
2.78132 10.0346 37.0519
2.8515 10.1119 37.2595
2.87759 10.4713 38.0382
2.90338 10.1824 37.7361
2.90453 10.0065 35.7305
2.77675 10.2792 37.8118
2.91684 10.7327 38.4629
2.87665 10.0691 36.7926
2.82257 10.4942 37.8706
2.82555 10.0877 38.3553
2.92631 10.0085 36.9286
2.8381 10.2133 37.3579
2.80074 10.0282 36.8155
2.78884 9.96235 37.3703
2.86876 10.3083 37.052
2.79621 10.2747 38.3375
2.87741 10.2052 36.619
2.74972 9.95199 37.1721
2.80671 9.82258 35.8516
2.7323 10.0344 36.9606
2.77606 10.0128 36.9399
2.7938 10.1628 37.2181
2.78117 9.96298 36.5712
2.74965 10.135 38.2378
2.84756 10.1826 37.4574
2.79835 10.1914 37.7317
2.76886 9.89273 36.6805
2.7286 9.89688 37.5562
2.79712 9.9655 36.6638
2.73019 9.93413 37.0797
2.76717 10.2014 36.808
2.69342 9.66042 36.7339
2.73516 9.98524 37.964
2.82542 10.0999 37.2296
2.75548 9.84401 36.5022
2.6548 9.49825 36.5379
2.7556 9.96249 36.8924
2.72193 9.72321 35.6765
2.65661 9.97764 36.8964
2.716 10.2872 38.5952
2.82292 10.2842 38.0205
2.73935 9.85648 36.7153
2.69605 9.90035 37.3914
2.73675 10.0494 37.907
2.75915 9.5823 35.1749
2.5849 9.73087 36.4804
2.66369 10.019 37.1294
2.68372 9.91347 38.6777
2.81216 9.96819 37.0373
2.68405 9.71561 35.8258
2.62862 10.1413 37.4496
2.6727 9.47346 36.0155
2.6526 9.88739 36.5087
2.65733 9.96896 37.2343
2.66494 9.43968 36.087
2.62477 9.95915 37.5697
2.70775 9.94866 37.0558
2.66819 9.7867 36.6284
2.64765 9.87914 38.7795
2.78978 9.904 36.3305
2.61081 9.8613 37.7365
2.70146 9.71071 36.2077
2.61598 9.76944 36.9537
2.62182 9.20746 35.6256
2.63285 10.0301 36.6394
2.60739 9.67606 36.6518
2.60829 9.823 38.5131
2.75134 9.87923 37.2351
2.66807 9.76849 36.328
2.60635 9.67252 36.5759
2.61251 9.75726 36.1756
2.57391 9.68724 37.424
2.66146 9.68015 36.7034
2.58985 9.50687 36.069
2.55117 9.70649 36.7462
2.58679 9.52896 36.0158
2.55298 9.7024 37.761
2.66176 9.71229 36.9373
2.60674 9.45649 37.4722
2.66372 9.90572 36.2866
2.56949 9.80497 37.3497
2.60509 9.63013 36.5612
2.57955 9.88158 36.5494
2.52155 9.24022 37.3059
2.63044 9.78251 36.5505
2.54322 9.51096 36.987
2.5843 9.49322 35.6605
2.50519 9.58558 36.4573
2.53974 9.77485 37.7253
2.61404 9.5295 36.9527
2.62659 10.2071 37.3888
2.55905 9.40773 37.5127
2.62935 9.78956 37.6103
2.59457 9.4525 36.3969
2.57749 9.57663 35.9954
2.50776 9.39074 36.104
2.51668 9.49096 35.9388
2.46291 9.27859 35.9633
2.52174 9.53186 36.8978
2.5429 9.52145 35.4347
2.43151 9.74521 38.8196
2.65967 9.50768 37.0837
2.58984 9.60751 35.856
2.4614 9.27648 35.5301
2.44765 9.23494 36.2633
2.51494 9.56843 37.4844
2.56494 9.50361 37.2829
2.56643 9.75542 35.9721
2.45282 9.34785 36.0995
2.47906 9.56556 36.5733
2.48578 9.49157 36.7746
2.51017 9.75482 37.1717
2.51405 9.23203 37.1607
2.55792 9.51185 36.3538
2.49368 9.3125 36.9355
2.53587 9.70152 36.4787
2.45812 9.33655 36.2852
2.47168 9.47439 37.0641
2.52333 9.34378 36.1628
2.45312 9.29121 37.0522
2.53548 9.45241 37.9283
2.59216 10.2776 38.0156
2.52422 9.22965 37.27
2.55333 9.4658 35.8072
2.41745 9.20734 36.0333
2.44817 9.0086 34.9584
2.41461 9.31319 35.1216
2.37088 9.1938 36.4983
2.45817 9.18664 35.5797
2.40916 8.96539 36.1287
2.46573 9.35656 36.195
2.46102 9.48013 36.4139
2.48906 9.33994 35.353
2.3844 9.64243 38.0209
2.54573 9.0974 34.4447
2.33709 9.46819 36.5183
2.43207 9.15479 35.8166
2.41933 9.28623 36.4671
2.46053 9.21667 36.9182
2.48017 9.29005 37.2545
2.52149 9.76642 37.161
2.46801 9.31633 36.2553
2.44046 9.58558 37.5075
2.50396 9.1216 35.7085
2.38724 9.35641 36.7458
2.44697 9.43396 37.5783
2.5085 9.50065 36.3211
2.39258 9.02921 36.4553
2.45691 9.47076 36.6789
2.45867 9.43255 35.9531
2.3654 9.1156 36.9853
2.48644 9.60352 36.8715
2.43978 9.1319 35.4049
2.3428 9.19915 35.7998
2.35444 8.77413 35.661
2.38241 9.15933 35.0509
2.34031 9.12223 36.0243
2.37519 9.39526 37.4126
2.47642 9.35703 36.7173
2.44029 9.31263 36.0744
2.37586 9.31886 36.4818
2.39871 9.20352 36.0735
2.37595 9.09159 36.5744
2.42188 9.26598 37.0082
2.42794 9.17291 37.0358
2.47029 9.49082 36.3867
2.4146 9.10128 36.1172
2.40442 9.23481 36.6881
2.42515 9.30073 36.613
2.42971 9.19334 36.2802
2.38224 9.21283 36.9529
2.4438 9.57857 37.0308
2.43074 9.09983 35.7792
2.38026 9.15151 34.8872
2.29356 8.85308 34.6758
2.31377 9.11289 36.4528
2.39718 9.07411 35.361
2.31702 8.59854 34.9592
2.30837 8.83306 36.4705
2.41414 9.29544 36.2847
2.39297 9.32217 35.7494
2.32707 9.10538 36.0811
2.35694 9.12303 36.9505
2.42976 9.3137 35.2107
2.32279 9.04896 36.0214
2.38005 9.14708 35.8536
2.3555 9.43725 37.4469
2.40984 9.14906 36.7748
2.39857 9.10865 35.8239
2.35244 9.37734 37.3737
2.42777 9.22561 36.3697
2.36726 9.42945 35.7663
2.31462 9.31481 37.843
2.45087 9.04657 36.4802
2.39586 9.25857 35.5052
2.29214 8.87776 36.315
2.38138 9.11018 37.2302
2.42103 9.23109 34.9467
2.27007 8.80423 36.4031
2.36636 9.25796 35.0654
2.28766 8.91259 36.0824
2.36269 9.11646 35.1537
2.26783 8.9571 35.8415
2.33588 9.03719 36.1208
2.37261 9.19524 36.375
2.36545 9.24495 37.0972
2.41071 8.94601 36.4695
2.37854 9.19811 35.1145
2.27424 9.02023 35.8269
2.33121 9.18715 37.4168
2.42536 9.23965 36.1848
2.34709 9.32208 37.1453
2.41578 9.25061 38.3017
2.47095 9.55612 36.9055
2.3866 9.21873 36.8406
2.39018 9.20459 38.0405
2.48457 9.64161 36.9167
2.37711 9.28332 35.8784
2.30212 9.25563 37.1016
2.38662 9.37519 36.9804
2.37925 8.92045 36.3789
2.36148 9.00206 35.8445
2.33134 9.19472 36.6292
2.36773 9.26952 36.0503
2.3094 9.2756 37.0911
2.37678 9.02348 36.4904
2.34559 9.04532 35.5356
2.29006 8.7095 35.6617
2.30572 9.35253 37.1061
2.38289 9.29066 36.7603
2.37272 9.19808 37.7682
2.43443 9.25718 37.005
2.41089 9.45197 37.3278
2.39473 9.40806 37.7768
2.42748 9.20954 37.4864
2.42074 9.49209 37.8713
2.44188 9.61112 37.4845
2.41664 9.4021 37.7081
2.41636 9.56639 38.1652
2.46867 9.51396 38.8192
2.50211 9.45899 37.6428
2.42354 9.38301 36.1447
2.31367 9.38565 37.6973
2.40978 9.24247 37.5821
2.42747 9.19238 36.1772
2.32684 9.45276 36.857
2.37792 9.47553 36.9893
2.36565 8.93238 36.4998
2.34785 9.09356 37.0287
2.39565 9.51393 36.5447
2.35806 9.29161 37.0409
2.36424 9.16375 36.6847
2.35677 9.04703 37.2972
2.41768 9.28615 36.8111
2.35723 9.01388 36.8118
2.37238 9.30837 36.5078
2.34083 9.21999 35.8775
2.31891 9.25157 36.3988
2.34226 9.30124 36.1071
2.34945 8.84171 36.8329
2.3615 9.39524 36.466
2.34394 8.85716 36.3331
2.3228 9.07533 36.3616
2.34504 9.42342 37.6904
2.40861 8.8658 34.7455
2.25138 9.34732 37.5801
2.42184 9.10869 37.4197
2.40112 9.41564 36.5963
2.35451 9.24031 37.7311
2.42052 9.27676 37.1835
2.3908 9.19907 37.8292
2.44652 9.14819 38.0304
2.45531 9.49186 36.2351
2.32559 9.69617 38.8893
2.49997 9.62606 38.4176
2.4747 9.98828 39.6583
2.52791 9.50193 38.1231
2.43458 0 0