# pn-170911/RbIIR-61-USNO-1280-1959.psd
# Power spectrum* (dif=0,1,2) (really just |FT|^2)
# NOTE: only the first half! (symmetric)
# weeks: 1280-1959
# 10 clock-days, 1 excluded
# PSD: 1441
138.585 0.0503815 0.0205698
7692.48 0.152149 0.00802133
33900.1 0.712462 0.0138749
16813.6 0.693078 0.00854808
13362.2 0.965023 0.0160156
6450.13 0.813252 0.0104595
5127.93 0.813863 0.0108792
2853.58 0.573782 0.0118798
3067.52 0.773381 0.0103565
2400.03 1.02565 0.0196394
1594.32 0.528661 0.00668025
789.543 0.409676 0.0143932
918.231 0.616075 0.00829975
783.923 0.555848 0.0143141
650.394 0.690333 0.0108766
680.503 0.622237 0.0135093
540.103 0.878707 0.0131559
619.434 0.561801 0.0124704
494.075 0.632814 0.0136794
755.085 1.27926 0.0115606
389.654 0.666747 0.0156772
450.813 0.906891 0.00887614
315.357 0.672616 0.02135
209.479 0.639462 0.00812595
243.03 0.580241 0.0179778
259.75 0.727539 0.00770695
406.566 1.27139 0.0173756
250.924 0.799261 0.0121902
354.762 1.16531 0.0131226
190.885 0.830855 0.0189145
71.2232 0.310069 0.0168229
89.6285 0.3985 0.0157802
161.081 0.89421 0.013255
259.883 1.04206 0.0202285
156.489 0.855475 0.0168107
127.941 0.680684 0.021753
81.8645 0.505696 0.0113562
249.863 1.31745 0.0262965
178.329 0.999868 0.0124898
127.6 0.87083 0.0230967
261.827 1.97634 0.0307575
286.304 1.99259 0.0238139
179.735 1.34145 0.0290039
106.446 1.05019 0.0222489
213.637 1.79763 0.0362165
135.98 1.22099 0.0234084
179.337 1.98856 0.0479263
136.556 1.55843 0.0257053
178.587 2.08726 0.0444861
144.582 1.71943 0.0306832
140.958 1.76901 0.0387409
264.569 3.26691 0.046323
93.1246 1.0108 0.0233958
124.755 1.37376 0.0361925
139.933 1.91619 0.0287916
243.339 3.199 0.0526459
148.703 2.23251 0.0368245
195.541 2.7338 0.076047
133.341 1.89042 0.0374154
95.6108 1.56193 0.048376
197.105 3.47483 0.0728467
158.449 2.91558 0.0707944
220.694 3.7056 0.0734758
99.5518 1.78984 0.0358566
66.0825 1.14261 0.0292751
155.458 3.52191 0.0825411
90.2759 2.09801 0.0483552
113.828 2.66197 0.0591721
136.364 2.34929 0.0464372
196.5 4.3797 0.122026
71.8471 1.85646 0.0488735
203.444 4.7133 0.114884
111.854 2.51965 0.0808772
114.275 2.91751 0.0917625
108.623 2.62891 0.0972061
100.208 2.36219 0.0889256
155.163 4.01826 0.122426
126.203 3.45133 0.131436
146.286 4.36884 0.174192
116.852 3.27045 0.123592
169.393 5.11031 0.167826
113.3 3.44633 0.127315
97.5583 3.17045 0.0949651
131.736 3.84919 0.10332
183.466 6.11008 0.220046
102.76 3.39718 0.120432
135.546 5.22755 0.221215
185.361 6.63044 0.272745
111.766 3.80199 0.105237
84.8436 2.72967 0.0838841
96.4574 3.35137 0.147395
150.928 5.75677 0.234938
83.1621 3.34836 0.171644
176.842 7.17322 0.292906
246.945 10.1504 0.406948
128.515 5.71093 0.26141
94.3637 3.78534 0.173423
158.989 7.45321 0.298795
121.94 5.38356 0.254027
142.285 6.12745 0.285015
172.975 8.45219 0.458014
120.679 5.41374 0.256339
125.271 6.80515 0.386119
119.285 5.34722 0.262999
89.8663 4.27884 0.228967
201.726 10.3256 0.51926
115.216 6.04708 0.340438
117.582 6.10646 0.356731
125.608 7.11252 0.447626
84.2725 4.37244 0.274729
80.9497 4.4286 0.248758
120.411 7.13792 0.457016
136.217 8.51522 0.558385
189.31 11.5858 0.745773
119.043 7.42428 0.498728
160.536 10.7135 0.719628
102.04 5.84038 0.322395
86.0403 6.31874 0.465613
94.3122 6.18865 0.429902
103.578 6.93795 0.424744
64.7873 4.92078 0.326939
118.604 7.61153 0.629433
140.219 9.534 0.589126
69.8468 4.95344 0.394752
101.026 7.37148 0.530809
70.5925 5.23917 0.397614
157.124 11.9327 0.859377
81.7872 6.74644 0.566337
57.5968 4.32827 0.345506
89.1174 7.81719 0.622918
97.5751 7.76567 0.617352
125.991 9.5181 0.809866
92.3899 7.52751 0.644603
67.3279 6.21765 0.586592
135.949 11.794 1.00239
132.046 10.9888 0.996392
109.962 9.52268 0.879764
107.209 8.80837 0.784449
116.045 9.94538 0.880569
65.2738 5.85887 0.519838
60.8298 5.12604 0.439581
82.1686 7.87405 0.860431
49.5577 5.1199 0.53682
80.3203 7.10725 0.702105
68.253 6.87559 0.701255
53.2973 4.70888 0.516787
77.0408 7.54666 0.810365
84.9449 8.34328 0.82002
90.9381 9.1131 0.988741
75.1386 7.74926 0.852218
122.995 13.489 1.56799
114.121 11.6234 1.12839
57.8981 7.02602 0.776008
115.745 12.5395 1.48636
79.7992 8.7265 1.00384
132.238 14.6383 1.66669
161.537 19.2166 2.12541
77.9622 7.97007 0.924087
31.295 3.88941 0.488459
79.1674 9.59048 1.21296
122.618 14.4161 1.78462
66.3334 8.20665 1.02266
160.649 20.1422 2.45224
63.9562 9.5812 1.30855
104.879 12.0756 1.5837
142.42 19.7968 2.7588
73.883 9.98412 1.3745
90.0516 11.3502 1.50492
53.2672 7.23564 0.940401
49.5415 6.42644 0.931792
112.746 13.4424 1.61306
67.8684 9.28418 1.30853
107.442 14.204 1.91979
104.49 15.3561 2.37792
68.7495 10.1405 1.45017
121.448 15.736 2.03385
110.089 16.3041 2.46614
103.706 14.909 2.18689
100.128 16.3152 2.78696
106.416 15.1876 2.2559
81.1371 12.2365 1.71664
52.0531 8.50304 1.40188
59.2232 7.90017 1.28036
101.786 16.1522 2.51937
80.6929 11.6245 1.64896
71.0872 10.7764 1.60602
117.734 19.4687 3.16948
87.8885 14.9786 2.54965
80.5282 13.6956 2.28692
85.5453 13.6722 2.2538
57.901 8.80373 1.49961
41.2368 7.22753 1.33833
52.0315 9.09189 1.69838
76.6912 13.1452 2.29815
81.4803 14.713 2.72045
103.769 17.7071 2.85934
62.8066 10.61 1.83093
57.3154 10.611 1.87511
111.006 21.7414 4.14922
67.5593 11.6738 2.08081
59.6126 11.1329 2.08978
67.7692 13.1318 2.38683
39.0427 6.83275 1.37156
56.1475 10.6378 2.2846
75.8329 15.522 2.88632
60.5149 12.0077 2.40826
99.7415 20.7362 4.18397
68.4016 11.6123 2.10957
78.0212 16.1896 3.43346
31.0955 6.88514 1.67276
47.9093 9.4922 1.97613
65.3919 13.38 2.86694
77.4872 15.0488 3.06779
40.1173 7.38701 1.59542
38.4361 7.98405 1.77364
72.785 17.4752 3.94488
112.503 22.8592 4.61865
64.031 14.4357 3.27901
62.5023 12.8312 2.84805
67.5362 14.8409 3.30924
47.9349 11.1317 2.53673
68.7188 15.1817 3.55351
68.7167 16.6891 3.76228
21.1376 5.79259 1.57148
77.5615 17.0749 3.99119
66.4465 15.272 3.48518
27.5432 6.2243 1.69393
68.5769 16.6458 3.97766
35.6132 7.83723 1.73979
75.6826 19.3776 4.5498
33.329 8.80526 2.30235
33.2233 8.30542 2.17921
72.959 19.0725 5.10193
57.5344 13.9685 3.5943
79.154 21.194 5.56802
67.2692 17.4163 4.714
69.4686 15.4662 3.76084
87.3789 21.6827 5.35242
47.1661 12.0925 3.17497
43.2866 11.6146 3.24921
34.2456 8.29217 2.23337
62.49 17.7248 4.7616
32.5783 8.50434 2.31706
106.578 28.6429 7.68942
55.3964 15.3656 4.50224
56.6224 13.5628 3.50315
61.3297 18.8609 5.311
67.4586 22.1481 6.83033
47.5642 11.8891 3.1959
52.0184 16.3029 4.94098
59.6649 17.7863 5.41328
87.3789 22.8692 6.02187
56.9569 17.6513 5.70054
50.6789 15.6735 4.72161
56.5136 16.0455 4.6517
85.74 26.5513 7.80986
76.2766 24.6988 7.70392
58.8416 18.7488 5.68917
53.3009 16.9577 5.49463
63.559 19.7228 6.41357
45.0649 14.4651 4.85107
75.5252 23.6563 7.62808
45.064 11.6003 2.91638
55.9425 18.0184 5.35616
48.5077 15.4865 4.8809
53.6634 17.1185 5.32995
45.0491 17.1127 6.0004
49.9262 15.9627 5.14222
61.536 20.0434 6.43385
34.7474 11.9054 4.09556
34.2269 11.1123 3.6836
60.053 22.4709 8.46579
49.1457 17.3004 6.30265
41.3513 12.3145 3.87711
51.5 20.5864 7.3104
22.502 9.44265 4.44314
56.6581 16.4506 4.84981
55.187 18.9055 6.06415
68.5698 25.3079 9.2809
43.5544 16.0556 5.89404
44.5094 15.796 5.65529
82.2284 32.0867 12.4323
51.7452 20.856 8.58431
31.7866 9.75496 3.39897
18.9714 7.11205 2.81951
31.6245 12.9591 6.32481
60.9127 18.1873 5.2036
59.4334 21.9116 7.80643
80.5173 29.6033 10.7783
32.596 12.5094 4.52608
26.0932 11.1252 4.53471
46.3979 18.1952 6.65466
33.46 11.7912 4.52039
41.5225 16.9899 7.24062
58.2632 21.9338 7.95152
40.5991 18.4889 8.22054
48.8449 18.0639 7.30398
57.2766 21.4208 8.64907
69.9851 25.5733 9.16363
46.4801 19.468 8.49836
22.6241 9.12004 4.36902
58.2804 23.1547 9.02232
31.8442 11.6667 4.31124
27.7354 11.9063 4.77456
62.954 30.3196 13.1967
88.5629 37.6489 15.5492
51.9818 23.1333 10.8011
46.2065 18.1876 7.60174
23.8055 9.70983 4.04238
64.9869 31.3629 14.5242
69.6724 25.1176 9.2164
47.2662 23.6921 11.4029
45.9319 20.6039 8.72354
38.6128 17.7977 7.88547
58.3792 26.1079 11.6127
45.3303 20.3323 9.89152
38.4532 17.8584 8.77932
29.5132 12.3454 5.35726
40.3395 19.9616 9.51988
16.9175 5.2814 2.04789
46.4857 22.7512 10.435
37.553 18.8768 8.81593
47.7522 24.1241 11.7764
43.5583 20.2638 9.40803
30.3514 13.6273 5.96725
16.4118 9.85684 5.62249
40.73 20.3564 10.7749
32.974 14.0687 6.27392
32.2714 14.2188 6.39221
38.3101 17.8589 8.63435
25.0175 13.8969 7.72333
44.9875 22.144 11.2861
42.9733 22.7601 11.8867
43.6191 19.112 8.4827
28.5636 15.5383 8.70171
55.3892 25.9012 11.995
33.4079 17.8457 9.57905
27.0597 12.6514 6.42293
33.0416 18.9985 10.9523
35.7461 18.3271 9.4173
19.4659 10.9424 6.59457
34.3437 17.5083 8.91679
42.499 22.8729 11.7158
18.1982 12.6111 9.71768
55.3898 25.9912 11.8598
25.4503 13.4563 6.88404
22.3454 11.8476 6.73214
28.4984 15.4693 8.24754
24.7339 13.454 7.45098
25.4445 13.2942 6.61515
31.7342 18.8308 11.1021
49.9521 28.8227 15.7095
27.9992 14.6131 8.12804
27.4034 14.5499 7.90679
24.1797 15.436 9.87792
25.4921 12.0664 6.09367
27.4426 16.6104 10.7226
40.5994 22.7794 12.6221
39.1992 23.1322 13.242
57.5036 31.8581 16.3928
30.0608 19.7322 12.3073
16.5844 10.2548 7.15986
21.1814 14.2164 10.3624
45.0112 21.4964 10.3059
35.6774 21.2138 12.4614
47.4431 31.6275 20.6873
40.0098 21.5595 11.6475
20.9879 11.6995 6.72533
20.9167 13.0906 8.96153
41.435 25.5264 14.7951
23.6583 13.031 7.66753
26.1032 18.5347 12.5756
25.1953 14.1255 7.68409
18.1876 11.7452 8.11052
32.5977 22.5321 13.9613
22.0558 14.754 10.175
27.9605 17.3229 10.9179
33.1551 21.1182 13.6172
27.19 14.6387 8.67658
12.6727 7.72281 5.66761
36.9908 23.0016 13.585
28.275 17.6608 10.8801
27.6532 19.3001 12.8087
21.3838 13.8188 8.86192
7.58066 5.18551 4.20372
34.5102 23.9026 14.6295
31.0185 22.5181 15.3817
23.3159 18.0197 14.0884
36.2651 25.7799 17.5683
30.3171 21.87 17.7452
47.0102 26.749 14.8276
24.4672 17.5421 12.6534
33.7821 19.7137 11.1244
20.7965 15.6478 10.857
20.2942 15.0092 10.5009
31.1326 22.017 14.3286
11.1894 10.277 8.72651
16.4102 10.998 8.58773
20.6972 12.174 7.47406
22.815 17.6546 12.4066
13.2519 9.43839 6.80604
14.5044 10.4974 9.20429
28.8804 17.9746 10.9342
43.0111 30.6852 19.5068
16.199 14.3166 11.5623
22.2899 19.6962 16.3076
9.35781 7.24581 7.49699
20.9722 12.1203 7.59036
26.6433 22.6913 17.748
25.4429 16.2763 11.118
25.4697 17.5437 12.6774
23.4291 16.5753 12.7126
25.1134 19.0982 13.3082
18.442 15.6543 13.1238
31.7062 24.0763 18.7336
13.326 9.5017 7.81508
14.4171 12.0729 10.7236
22.3643 17.2239 15.1492
43.1579 35.9415 32.2741
130.372 92.7918 60.8148
45.2427 38.3273 30.2714
30.1049 22.6964 18.383
25.5189 20.4291 16.4236
28.9821 21.0049 14.701
15.7022 16.4545 16.4851
27.3392 20.016 15.0858
22.5556 17.0441 12.1778
21.3154 19.0884 16.836
41.8009 38.285 32.5693
47.4283 34.766 23.538
12.7311 14.7285 15.4251
27.3847 21.5908 18.8243
32.4006 23.3827 16.9103
28.223 25.7075 22.2724
32.6132 23.9261 18.0015
24.5713 20.871 17.4067
17.7052 14.6681 12.2517
24.455 22.4848 19.3052
16.7043 10.8233 7.00523
22.8842 22.8692 21.4232
13.5618 10.2602 8.87939
18.2382 14.8692 12.6739
12.0869 11.3254 9.89528
18.198 17.2563 15.4101
10.4186 8.40104 7.42608
12.6008 11.9592 12.211
11.981 10.3204 11.3604
31.1779 24.0059 18.0365
13.6739 11.3253 12.1577
23.3238 18.0649 14.7268
26.1956 20.2317 14.3931
16.9277 16.8792 14.7272
19.9018 16.5019 13.0514
23.3967 21.0814 17.0589
14.26 16.856 17.768
14.4658 14.8076 16.8905
13.6569 9.26855 7.45842
16.824 15.9192 15.7177
16.0956 12.8779 11.8606
21.2383 21.454 21.0615
23.3389 16.6393 12.9371
27.9288 27.7672 25.6388
21.1582 17.6617 15.8701
20.5138 20.2207 18.981
15.8569 12.4819 12.5998
30.9896 26.602 21.7311
28.1581 25.0244 20.2757
12.3264 14.2598 15.3049
16.2641 16.5748 16.9281
15.4811 15.0395 15.0437
13.3692 12.7639 13.1296
15.2439 15.1275 15.7037
18.0117 14.904 12.6409
20.0677 20.817 19.7787
13.0039 12.4903 12.2642
12.6833 11.7573 9.99579
8.59311 12.4101 15.7355
23.0983 21.2075 20.5588
34.82 34.4242 31.5635
24.6247 25.8631 25.1127
9.30815 13.8859 19.9726
14.9472 14.0854 15.668
21.4234 21.8747 23.1359
23.2348 21.5641 20.1973
16.4346 14.4103 12.6575
20.3791 21.3881 22.4017
16.0355 17.9039 20.1012
15.5131 15.72 16.6187
21.3823 25.1694 29.1307
20.987 14.5564 9.42753
14.8164 17.3533 16.5802
17.1708 20.316 21.035
12.9597 16.6167 20.9405
13.765 11.7543 12.7259
16.7099 16.43 15.9058
10.3222 10.1899 12.2064
12.6793 12.0871 11.2818
23.47 29.3673 31.8613
15.0466 15.1028 16.1815
9.44432 10.7413 14.8303
21.2348 22.6148 24.6711
16.7425 14.1681 12.7297
11.1159 12.5343 16.3705
27.1237 28.0326 25.6501
18.9555 23.3759 28.2464
20.4314 19.0056 19.5885
20.8137 23.8298 23.5129
13.1875 13.9015 14.1919
20.6052 26.103 31.4609
15.7566 16.7366 20.9839
25.9313 24.0152 21.0447
14.6421 19.3639 23.9585
11.9759 11.4102 14.5376
29.1368 39.3386 46.6544
17.0318 12.4215 11.8727
17.1055 17.1916 16.6067
19.4615 23.4654 25.6733
21.1729 24.8649 26.2239
19.3217 23.8732 27.7185
16.336 21.5361 27.0896
11.5208 12.7078 18.1552
19.733 21.6028 23.3716
15.5197 19.611 24.8497
18.7557 21.086 25.7386
23.0931 26.8221 31.1748
15.8564 14.3777 13.1551
10.9974 15.0178 18.2049
15.8862 23.5224 32.2272
17.0377 16.883 19.641
14.7695 14.9095 14.6509
14.9859 22.7731 32.7121
22.0225 24.4992 29.2119
13.4062 17.3305 28.0102
29.1898 26.2545 21.6943
7.98657 8.66798 10.4593
10.7451 14.2864 19.7027
21.3554 22.0663 19.173
16.8443 24.3561 30.778
19.161 28.0196 38.1956
13.2776 13.0331 16.0138
22.3886 30.1209 35.5968
14.0669 15.3927 18.9002
19.6564 26.4491 32.9588
15.1721 18.5498 22.6674
8.37089 9.77235 14.2289
21.9005 31.0811 40.2858
16.2821 16.9097 17.8976
14.6354 20.0333 23.032
7.91021 10.1901 14.7134
13.5231 21.4036 32.0134
15.9022 15.2468 16.2279
10.8377 14.477 18.8024
8.43672 10.3236 14.3606
12.4135 15.3118 18.6565
12.0556 16.7899 23.3601
12.4926 13.4455 18.786
22.1437 24.843 26.4996
27.9497 41.7823 52.4811
12.4879 13.5638 15.7574
8.01875 13.5972 23.8096
17.4008 22.7313 27.6924
9.70202 14.0542 22.779
11.6064 12.1801 14.7006
13.2896 17.4201 22.3289
20.0041 27.2956 37.4183
20.4837 28.1669 33.274
8.32384 14.268 25.8137
12.8726 11.2685 8.93106
6.04465 11.4127 18.1996
13.8464 19.7278 25.8503
6.28343 12.6291 29.3563
21.9348 22.5742 21.9507
11.9737 15.2451 17.2356
6.56179 8.98885 11.0762
8.10275 14.1814 22.797
12.4042 15.8781 23.3664
13.3663 18.4695 24.0649
6.28364 7.04876 9.90925
11.4426 18.1872 28.541
15.933 19.1218 19.6425
11.6653 23.2005 39.3626
13.073 14.6529 20.0695
12.2065 14.8555 22.0972
18.1283 25.507 30.6534
10.5723 14.258 18.996
9.72748 17.1965 31.2021
15.4238 19.8159 26.9141
12.583 17.3196 25.1696
13.872 15.3579 16.8547
17.8638 27.8649 36.9355
11.7185 17.9402 29.714
14.7943 17.3206 17.8392
7.76593 14.1256 26.053
23.3488 33.9342 41.8128
5.94383 10.3356 21.5257
14.0045 21.0075 29.9827
10.4556 12.084 12.7748
3.68613 5.76629 11.7907
12.2271 19.2197 25.4549
8.98493 14.4303 23.1367
9.06796 11.9866 18.1793
13.3689 19.5764 24.1662
9.21244 15.5857 22.9324
14.9002 27.5447 41.6245
8.02823 14.8169 32.9725
15.6338 17.3547 18.5736
10.0098 17.8948 28.458
9.46659 11.8045 16.4666
8.70965 16.6018 28.9692
11.7856 16.3668 24.0191
11.1253 16.4352 22.4906
6.8705 10.7741 20.2215
11.8747 16.809 23.1401
12.1657 18.1492 25.0311
7.236 12.5509 20.7939
6.27896 11.5373 25.9015
15.839 21.2064 26.9239
9.76699 18.4478 32.9457
11.4106 18.283 34.6179
14.7767 18.6141 25.626
8.52587 12.5253 20.3047
9.85431 15.8219 27.0201
12.5634 14.9675 20.2692
13.4219 22.2589 31.6097
11.9123 20.046 30.8698
12.1712 19.7548 30.0207
10.4504 20.2541 36.9949
15.2818 23.3739 32.4502
6.52978 15.6448 34.8787
11.651 15.6901 23.8899
4.65296 5.32486 12.0353
8.21392 11.8423 17.0187
5.77211 8.8508 17.1023
10.9758 16.4 22.8482
8.86252 14.3243 22.0043
9.70167 16.1513 23.0024
7.5523 16.3927 33.5148
12.6204 19.2354 28.9983
7.72517 13.1211 27.5754
15.0107 24.8625 44.9318
18.9958 26.4034 32.259
8.20701 15.0681 25.6785
7.91434 11.7699 18.6342
10.3153 21.8225 45.4834
14.9093 20.2035 28.3074
9.20557 17.7688 36.6294
15.4834 21.5083 26.0363
6.01822 10.3402 16.9449
6.7815 12.7222 23.4937
11.3735 22.6219 38.4487
7.56856 10.8097 20.4967
9.74466 17.9081 29.7262
7.01863 12.2908 23.7685
12.2081 23.6211 41.511
9.57899 13.5991 26.0833
10.1199 15.9637 26.2024
9.44197 13.3942 20.3382
7.69775 13.9043 28.9946
17.5281 29.4615 40.9309
8.35363 14.5042 24.5029
7.96378 15.7302 27.3766
4.76981 9.72719 23.3065
9.87638 17.2899 32.5931
9.4528 13.0597 20.0383
8.58526 19.1512 37.7502
10.7111 18.8602 39.3612
13.9668 18.3623 26.2829
10.9771 19.6648 28.4145
7.06329 13.9525 24.8827
9.29138 21.4558 40.7544
8.60618 14.1777 28.1007
8.30719 11.4434 19.964
9.52567 15.9847 25.8297
7.60699 12.9962 20.3399
7.77625 16.1742 28.7391
5.30523 11.0217 29.631
12.6916 19.2735 26.8473
11.7467 22.9996 38.6958
8.517 17.2355 30.9596
4.90084 9.7527 21.9895
5.96737 13.4612 33.0417
11.0704 17.9441 31.6903
8.76799 11.9029 16.9654
8.62838 17.4843 28.5522
4.72635 10.5321 24.4432
9.76388 19.1808 34.7421
7.80387 11.6893 20.4957
8.32069 17.907 32.517
7.41408 12.7901 23.5493
8.39143 17.5931 36.7879
7.46754 10.5355 17.7643
7.44353 15.9631 31.5363
8.66031 16.3613 33.8035
11.3794 19.3946 33.1168
7.34406 13.3845 21.9446
4.88036 13.9606 34.9352
6.00414 9.67489 27.6325
8.81642 10.5108 15.5663
6.03323 9.76402 16.3327
6.94788 16.1825 35.7161
10.2218 17.5902 33.4981
7.58692 10.6897 18.3854
8.91001 17.7562 28.4446
5.48496 8.01548 12.115
3.26098 6.22191 13.5352
7.99632 15.0896 24.2786
11.3053 31.5551 70.7195
15.9529 23.7211 30.6864
9.32775 18.8621 29.9459
8.14045 21.9859 46.7884
6.33562 8.84171 19.328
10.8101 25.4441 50.4721
9.47723 17.4303 35.588
8.57517 14.5577 25.9085
9.89722 19.2103 30.3095
5.65315 10.4976 15.1012
6.3744 21.7632 51.1991
7.76208 13.0905 29.2941
8.02258 13.1749 20.1904
6.81713 16.7967 29.2019
5.885 18.4368 40.1451
8.75832 34.9762 115.614
38.3334 86.1339 197.056
37.577 43.7909 54.5309
11.7872 19.2759 33.8493
7.86622 12.1947 21.807
10.1463 20.9156 34.6798
7.7025 19.0875 46.3983
11.8025 19.6038 37.4638
9.18876 15.583 24.1225
6.49085 11.7366 18.9346
8.00275 20.9942 42.5276
6.09029 11.3082 19.4242
5.59588 19.3772 47.9585
6.77545 10.0158 22.4867
5.88705 11.2057 24.9792
7.53738 13.408 30.9543
16.7118 33.7103 42.4813
11.2335 52.8694 157.982
35.1157 77.5473 176.607
33.6702 62.4749 147.084
31.2893 36.4292 36.3275
7.11846 12.1853 24.5248
12.0147 24.1916 35.9402
6.49218 17.0078 40.766
7.44507 11.2121 20.6837
7.5392 16.6927 31.3909
8.17506 18.8754 32.0734
3.35177 7.69799 23.6958
7.62921 17.2839 35.5513
4.7375 9.22631 23.2201
5.68812 10.588 22.3647
4.18317 9.31008 32.5647
10.2394 14.5178 15.441
4.18096 14.6512 47.7477
11.8359 14.7293 15.3273
9.66403 26.4806 46.728
8.09044 22.411 54.4412
11.0572 19.0603 26.5799
4.62314 22.1222 66.7064
9.07865 11.9489 19.0308
3.6416 10.0051 25.3447
4.20775 9.03589 28.4817
6.86688 12.0084 22.5902
5.21602 11.8263 30.7259
5.6232 8.45415 17.3035
6.18642 13.9679 28.2455
5.24526 11.2419 27.6935
5.41846 9.65324 24.645
7.89253 12.7524 14.9258
4.48001 15.0236 33.0684
5.83048 14.1356 32.9605
5.34009 10.7135 23.0342
4.95898 14.0662 39.2937
7.51091 15.9953 43.6862
10.6727 17.845 31.1625
7.5531 16.7886 36.4439
6.92039 13.3926 26.4257
7.31767 15.9054 23.3985
3.07 10.0224 31.5156
8.99567 17.7095 29.1092
3.5641 8.73431 20.3519
4.66434 15.0851 46.7517
9.01195 16.5608 32.8195
8.58025 17.9946 27.859
3.11479 8.78271 18.1789
2.60571 10.5944 36.1411
6.86801 14.5439 38.9453
7.15374 14.4559 28.82
6.43311 13.5209 28.7703
5.6405 9.86489 13.5362
5.94976 22.7593 52.1963
3.60266 6.16824 19.2823
4.46083 12.7028 34.9729
5.58947 11.5749 30.3434
5.59604 11.0289 19.2081
3.87328 11.2636 27.1371
3.92144 9.57192 28.5579
7.62489 21.0536 53.8597
8.97782 21.412 44.7509
3.73796 8.6068 28.5989
4.2043 8.75311 36.7732
9.44728 15.409 25.9117
3.48728 6.02217 18.7899
7.22255 14.9221 28.8849
6.5476 15.3711 29.9741
6.63132 18.7434 44.09
6.44059 17.5788 47.3103
8.98722 19.2105 38.0924
5.6051 12.0688 23.5625
4.74131 15.1856 39.1718
7.07667 16.9543 37.655
5.21832 11.8855 32.3742
5.30664 13.3482 39.9587
7.85981 18.752 35.5254
3.88517 8.17711 21.8491
4.23136 7.91376 17.6888
3.9514 10.7648 20.9515
5.3669 20.0389 52.5056
3.88807 8.09307 37.2341
7.23244 11.225 29.7781
8.09934 20.0234 37.9006
4.28454 13.5886 50.7425
9.70234 16.1558 26.5097
6.23865 16.7026 39.5416
5.29308 12.5419 37.0279
8.94348 20.9581 36.9026
3.97422 12.293 40.3551
6.05023 11.7801 32.118
7.05249 12.4324 21.6418
5.55592 15.0223 33.3648
5.04895 10.7013 20.1231
2.76704 7.71828 24.286
5.60255 14.0387 36.9771
7.40906 17.924 33.6611
4.01641 7.7838 19.7644
4.52563 11.232 21.8106
5.03889 14.8088 32.0001
4.02477 12.3263 35.1801
4.26141 9.38697 25.5318
3.63609 9.64726 32.338
6.53031 12.6462 24.4285
4.14297 9.72193 17.1004
2.8365 11.4122 36.3232
4.26635 6.85191 16.3085
4.79845 13.3917 27.1919
4.692 14.4482 34.5187
4.84264 13.6566 31.7464
3.82674 11.8 33.753
5.99622 21.1816 60.4949
5.38936 9.99943 30.1562
6.11718 14.7989 30.2182
2.81506 6.68872 20.6438
2.48267 6.44174 27.9646
7.53637 18.5944 39.2666
5.32185 17.5035 52.0199
6.03338 11.0836 22.1544
4.24859 15.7785 48.8927
5.74295 13.4051 43.5336
7.16297 14.399 19.9125
2.24809 7.24662 21.9876
4.27191 12.7899 34.0853
3.25135 8.57405 25.6496
2.81512 7.01281 26.1356
5.39033 14.9031 38.602
4.55947 12.0137 41.9704
7.13213 13.7187 25.3598
4.09772 13.9644 38.6703
5.24951 11.8615 31.8391
5.64809 15.1046 32.069
3.53367 10.8338 36.1087
4.96236 11.6774 37.7019
6.59874 15.8553 36.3429
5.59983 14.1044 33.8823
5.26158 15.0084 35.917
4.51441 10.4104 16.6467
3.47166 14.8981 48.0959
6.35348 15.6142 33.9177
4.16313 12.1053 33.0308
5.32271 15.9912 40.144
4.09739 8.58558 17.0177
2.92004 11.5016 29.1841
3.64241 15.5466 48.004
4.64 9.60853 27.2577
3.87693 11.9099 35.6684
4.19884 9.41658 22.9699
2.10406 5.43927 25.8971
4.55112 13.1417 39.1559
5.25007 10.5333 25.9516
6.27825 19.4175 40.8258
2.68279 8.55972 34.4968
5.16818 10.5015 27.4505
3.91434 11.3306 43.5174
7.65159 18.7205 41.5487
4.32456 9.46639 22.2458
4.5172 17.0854 50.2121
7.86014 20.2259 43.6661
3.9882 11.2362 35.2026
4.82089 14.2741 34.9933
3.06384 8.14974 29.5041
4.59868 14.3641 44.0543
4.97945 12.8428 37.3879
3.59059 9.61152 30.4945
4.11361 12.2947 44.6697
5.39863 9.00071 22.7629
5.07822 15.1027 39.7975
5.60372 15.0838 38.367
4.6129 11.2217 26.7957
3.77698 14.5495 43.721
5.4028 16.9671 47.7357
4.1017 9.99788 35.208
3.62884 7.04881 28.1829
4.90388 10.3864 30.8036
5.80971 13.8859 20.211
3.42182 14.457 34.8237
1.99634 7.23815 37.1147
5.77599 15.4458 40.9283
3.91937 10.0712 31.0136
4.21995 11.7236 37.0079
4.92352 8.62764 20.8993
4.50723 14.2386 30.6005
4.60945 18.446 47.072
3.72337 12.3619 43.9594
5.23135 13.7302 38.7437
3.87127 10.4111 32.6479
3.77336 9.59813 29.2592
3.89443 10.3891 25.1363
2.79275 10.0423 37.2148
4.42317 6.4902 10.6605
2.88512 11.3585 32.8768
4.03376 13.4892 39.5079
3.75648 10.8452 42.5024
5.32402 11.2168 23.0547
4.13506 16.9112 45.7376
3.45842 5.01394 8.27528
1.29969 5.82923 19.5991
2.68891 8.11542 19.7761
2.41523 7.25299 15.662
2.08512 12.1078 43.5505
3.47814 8.67423 30.4927
3.36145 8.49851 30.1038
4.14886 12.1745 47.2087
6.50536 15.8558 34.3435
3.58341 7.18621 14.5292
2.8055 11.4564 27.2097
3.58121 14.7493 43.8268
3.02916 6.44271 27.5438
4.09399 13.7544 45.0271
5.2198 14.1689 43.7528
5.63967 16.7089 48.9974
5.04946 12.0402 31.1045
3.99703 11.822 29.984
3.04553 10.5443 31.7731
2.62411 7.0118 26.6161
3.15122 9.15075 37.0967
4.11838 8.52898 26.2649
4.5766 14.3962 34.0294
2.99492 8.26486 24.2575
3.53014 11.5344 30.238
3.21412 9.79244 24.4235
2.55165 11.2717 40.241
4.27535 12.5999 37.2464
3.45304 6.33264 13.9289
1.77666 7.93362 34.5064
4.29899 13.7157 54.7046
5.92791 13.497 27.008
3.15839 10.1972 30.4905
4.05839 13.7816 29.5341
2.30735 9.26458 30.7306
2.74452 8.88699 42.6828
5.81868 16.901 40.1572
2.88841 10.5164 39.5728
3.22089 4.32156 23.9141
4.09091 9.82691 18.3134
2.03409 6.20093 18.8958
3.17047 11.1892 24.636
1.66984 5.25445 20.4688
2.44169 8.81381 32.5287
3.19421 6.73166 17.7891
2.09601 8.82655 42.894
5.95457 15.7897 32.2276
2.88272 10.2192 33.6944
3.46167 8.06309 21.8188
2.79664 9.19645 19.481
1.81668 7.71467 27.2355
2.52976 8.92546 39.9034
4.54091 12.462 38.0871
4.17615 8.53874 22.37
2.91737 9.7102 34.2131
4.33827 13.7059 28.7013
2.08299 7.60721 25.2674
3.2871 16.3415 60.9528
4.59199 6.21777 19.7054
2.98186 10.1703 34.3195
3.73562 10.7514 35.5838
4.14626 12.836 33.6961
2.93562 8.48421 33.9608
4.70109 14.0802 36.9777
3.99585 12.5787 32.681
2.61746 5.79206 14.1916
2.48967 12.3709 38.895
3.50112 11.3625 34.8404
2.96089 8.61195 27.9347
2.24388 6.72583 24.5847
2.80147 9.28303 33.9216
3.59516 10.4597 27.0356
2.16265 6.98827 25.2503
2.23439 5.72645 21.1642
3.0934 10.9962 30.8231
2.80242 9.42063 33.0583
3.12413 9.85816 25.1385
2.09952 7.55542 23.8849
2.69786 10.4888 40.8771
4.00727 10.9678 27.7907
2.51816 8.44639 40.1012
4.48526 14.3553 40.5878
3.95787 13.8577 48.8103
4.47151 11.6078 33.3822
3.78828 13.9001 48.055
4.26652 10.1873 29.0769
2.87206 6.32029 20.3906
3.93155 17.9022 53.3861
4.25348 13.8079 34.96
2.24681 5.31428 23.1316
2.78435 8.44204 24.7906
2.43651 10.0058 36.4783
3.39713 13.1864 47.6184
4.06799 9.8449 26.2486
2.67907 9.52306 36.9973
3.90115 16.0486 53.4647
3.84629 9.50787 38.2698
4.26949 9.14847 21.17
2.05101 6.34146 29.0327
4.26615 18.5693 54.2674
4.01833 8.47104 28.2289
3.8711 16.968 44.6971
2.57697 5.225 25.4051
2.86977 9.54567 27.0833
2.48046 9.67831 36.3668
2.92472 6.55513 22.9227
2.5395 9.06649 20.4289
1.6508 6.04535 23.6186
1.87172 4.98998 20.7091
1.98893 7.708 38.4976
3.55233 10.6566 36.7138
3.78297 9.27816 19.814
2.25971 8.65482 23.0026
2.60643 11.6514 25.0132
1.74621 8.31056 24.5245
1.65642 10.2215 47.3674
3.07481 2.95888 23.258
3.24312 9.57688 24.6946
1.9459 3.91313 11.0819
1.75646 9.10454 37.4037
3.44895 12.2285 39.2502
4.01504 12.3461 27.2766
2.39941 11.6031 51.9387
4.87961 11.414 27.9927
3.41254 17.8175 53.3763
3.6033 7.98203 29.6107
3.72879 16.2837 37.7866
2.28386 7.24001 27.1823
2.09637 4.65987 13.6827
1.74434 11.3501 46.9856
3.22497 5.22041 29.2415
3.74813 13.94 39.784
3.42573 9.5155 25.6849
2.4224 7.68902 25.9428
3.11963 17.2002 52.3686
3.11031 5.03747 17.0781
2.13059 11.1364 38.1466
2.61705 6.99759 28.6847
2.50124 8.90662 35.4353
3.31148 11.1136 39.7079
3.26573 10.7636 45.5736
4.23724 13.8613 32.1834
1.86744 7.29532 32.5157
2.85797 6.57859 25.2119
2.33452 6.06408 10.7676
1.07286 6.86793 35.0069
3.25818 8.86962 22.2394
1.61588 5.96409 26.0633
2.07305 5.7199 17.0839
2.01783 9.69154 27.4431
2.24716 9.32555 44.0132
4.04695 14.3537 34.55
2.44963 10.2174 42.7585
3.47465 10.6821 36.4349
2.82568 9.0007 28.7903
2.2268 8.54325 53.35
5.29025 13.2331 23.8775
2.06825 11.3447 36.1683
2.28612 6.65305 29.6329
3.04091 14.7725 64.1985
4.78567 9.10129 36.6574
3.84946 11.7882 38.9825
3.78558 9.16491 16.7416
2.02758 10.3025 25.0828
1.70419 8.99567 49.6377
4.68258 18.9316 59.4212
4.16717 7.40057 25.0981
2.62863 11.0314 25.7372
1.77477 7.88674 31.4727
2.55517 8.26079 36.2515
3.07665 7.96691 15.7559
0.910493 2.78121 16.5949
2.44136 14.5885 52.0014
3.63227 8.78548 28.8055
2.85396 10.2703 23.8391
2.22127 8.05394 18.4266
2.02434 14.8891 39.5801
2.33493 7.19806 18.4644
1.40966 10.8799 47.2707
2.96927 5.87506 22.1388
1.97395 6.91265 17.5199
1.28297 10.0296 46.0978
3.021 8.50035 35.8608
2.53991 6.64494 33.3088
2.76715 7.22942 31.1179
2.82985 9.16667 25.2829
2.05831 7.90187 31.559
2.85603 10.1747 32.9329
2.80755 8.20858 26.9723
2.17267 8.7542 36.2813
2.98124 10.1184 31.4882
2.66426 11.8557 52.5556
4.10003 12.3885 34.6147
2.52744 10.0175 45.021
3.76118 9.36293 38.796
3.38782 9.20463 27.988
2.88405 13.6673 38.6885
2.80929 7.52037 18.8097
1.35741 8.4023 39.6338
2.98361 7.88182 20.8235
1.53073 8.41709 34.4237
2.24572 8.6644 42.8996
3.90209 12.5365 33.0594
2.24644 8.70543 50.5686
4.22453 12.3659 25.3193
1.73273 8.26204 30.1713
2.2182 6.29841 37.2296
3.47378 12.349 27.3211
1.64173 8.95548 46.8992
3.64053 7.70394 31.111
3.01446 9.45772 15.3802
0.995945 5.02004 17.8634
1.26286 5.00456 19.1656
1.30104 7.46489 47.7115
3.88765 11.1382 30.9302
1.93691 4.99046 23.799
2.1731 9.43381 30.3598
2.58907 11.426 49.9696
3.87142 11.6611 30.3007
2.48135 9.18824 23.9807
1.56387 8.83164 33.9619
2.38487 10.2803 42.9534
2.91438 5.9181 27.6481
2.28275 6.05625 21.039
1.93392 7.21018 30.1647
2.73668 10.0715 23.4738
1.3636 3.88315 35.9024
3.17432 9.22307 26.0561
2.73151 12.717 28.756
1.63714 7.83792 39.4544
2.78078 9.39832 32.1403
2.26804 7.68828 35.9946
3.03953 14.3199 44.5182
3.1151 9.28026 20.5896
1.12658 5.89333 27.6919
1.78241 7.18761 35.4202
2.54742 6.00616 26.7283
2.38981 6.94105 21.3433
1.65618 7.6872 43.4092
3.45528 10.7901 26.2123
1.86049 6.25771 17.2376
1.46516 10.4035 45.2623
3.06601 8.51038 28.5224
1.92068 4.89047 19.6401
1.54438 5.06725 41.784
3.74873 8.67113 23.6219
2.57509 13.3525 39.2169
2.91599 10.1519 27.8755
1.90516 7.00215 27.1686
2.00812 7.47717 30.902
2.22646 8.08139 33.1077
2.86882 10.4824 29.1535
2.10919 9.30944 30.6775
2.13158 10.2192 26.5701
1.29246 6.56461 42.5626
2.86822 6.77821 35.8056
2.93494 10.4115 45.9975
3.70155 11.218 22.5252
1.56239 8.44152 32.3482
2.33572 8.57025 23.1813
1.54653 8.77938 39.2169
2.51347 5.36658 25.431
2.59791 13.6664 35.7255
2.24633 7.17393 31.5747
2.49743 11.2354 50.2418
3.86414 9.76573 21.0963
1.22066 6.9398 36.7
2.48618 7.20879 30.6059
2.59685 7.41735 22.245
1.59248 6.16928 29.2927
2.412 7.22716 29.8118
2.89827 14.0034 20.7073
1.20867 11.9426 51.5085
3.26047 9.36928 25.6602
1.80162 10.9235 43.2253
2.35473 4.02112 16.3253
1.16195 6.21284 21.0703
1.52877 6.6652 25.4615
1.5947 4.57911 20.2356
1.32435 6.28983 32.241
2.1301 5.62048 25.0956
1.99063 8.36445 30.2035
1.94942 8.90634 35.7856
2.35082 5.1691 33.1585
2.54257 9.66187 37.0821
2.66624 7.86572 28.5267
2.10384 6.23187 34.8161
2.72164 9.0114 24.3776
1.70888 7.70736 27.1089
2.02083 9.33459 32.3384
1.98905 6.0033 25.1729
1.69704 3.11987 15.1584
1.35275 5.74338 22.6335
1.75058 8.02625 39.0096
2.65782 5.15194 20.2466
1.76762 9.373 29.3157
1.98532 7.3795 26.1788
1.84714 5.90778 25.4407
2.00167 8.54992 26.6988
1.78258 6.76761 37.5594
2.79043 10.2613 20.1367
1.51589 8.65724 39.1629
2.77748 9.01311 29.7795
2.1429 9.49666 32.4771
1.80952 4.49232 28.6304
2.00268 5.73721 13.109
0.974537 3.741 16.8448
1.67875 11.4897 31.7055
2.10559 9.84134 36.4549
2.68351 8.90733 27.4793
1.91886 10.3179 31.8797
1.79993 5.09501 31.9235
2.53669 14.2888 46.4619
2.83837 8.2926 30.231
1.85226 7.74906 33.2875
2.30227 7.44775 29.3914
2.1367 10.4982 39.7084
2.49754 5.78483 24.7534
1.84431 8.51507 36.7226
2.49964 8.30593 35.2892
2.34217 6.59116 40.0476
3.03109 9.44319 18.8167
1.36957 6.28821 19.9972
1.20429 5.60716 17.5678
1.00755 4.12489 26.6516
1.87253 5.45334 13.6827
0.964083 4.43467 20.5398
1.52254 6.71506 33.3398
2.26495 7.31201 36.6621
2.54315 7.23806 18.7331
1.25557 6.96697 31.4129
1.99927 3.57518 20.7083
1.74287 7.14716 26.6245
2.22417 14.7504 50.0407
3.22417 10.1695 31.892
1.73322 3.67346 20.4635
1.65615 9.69348 45.5681
3.16645 9.14523 21.7584
1.63519 4.84668 14.4225
1.15058 7.41139 22.786
1.60736 7.11125 27.7705
1.8213 7.83291 32.3823
2.16204 11.0029 36.5905
2.05283 8.66096 35.3802
2.12079 6.7291 46.4371
3.03782 6.34568 7.98118
0.579288 4.17956 44.9071
3.42313 13.4609 32.2365
1.93999 4.98538 13.1444
0.896008 4.52892 13.3193
0.850285 5.83447 32.2962
2.10494 6.87536 26.4494
1.91727 7.88655 35.202
2.50317 11.4525 47.4908
3.25078 10.3459 24.2816
1.5573 8.84121 25.7139
1.62339 5.59854 24.4721
1.73659 7.20949 23.326
1.41869 7.17333 42.4064
3.14517 12.1973 41.0859
2.80778 9.95213 40.3037
2.36259 5.93908 33.4615
2.49989 13.0039 59.0569
3.84418 10.2573 31.7368
2.22028 6.66263 26.9086
1.77865 6.37333 32.8362
2.45361 13.8343 34.2263
1.92777 7.07333 38.1355
2.79625 14.0885 34.5126
1.84956 3.59873 16.5946
1.14916 8.06413 45.6079
2.68326 7.91745 43.248
3.04808 11.9737 33.878
1.94516 6.55114 31.3837
1.93463 5.63498 20.0893
1.37194 6.97443 24.9214
1.68292 4.67942 19.5039
1.42925 6.80541 21.754
1.2618 5.75307 33.852
2.19842 8.25654 29.9275
1.93655 6.18468 27.5003
1.72682 6.30329 24.9073
1.86828 7.79201 29.3111
2.03441 10.3524 34.2919
2.20399 9.49265 36.3358
2.2361 7.6643 29.5263
1.70466 6.71617 63.3551
4.4356 13.8192 42.1982
2.55347 7.10467 28.3922
2.00251 10.8516 30.7524
1.84932 8.57238 31.1696
2.04317 11.9693 44.7155
3.12344 13.2578 46.0384
2.64841 7.50203 21.2178
1.42367 7.99264 36.0505
2.23847 4.86757 17.3906
1.23823 5.71596 25.9287
1.57591 5.7726 37.1275
2.48755 11.6655 49.0952
3.56926 11.0838 20.4786
1.11035 6.17357 34.3054
2.17685 10.3241 33.1496
1.98324 5.18059 40.4813
2.99316 11.9366 40.8192
2.53387 7.28712 16.6539
1.08263 3.11976 19.5636
1.29978 6.98912 35.9418
2.36758 11.6871 32.2373
1.97774 5.91768 33.8749
2.32836 8.29239 40.901
2.64643 10.0859 26.027
1.51938 4.99275 21.817
1.50724 9.12269 27.9654
1.75459 7.66873 20.542
1.17924 7.05213 51.589
3.20917 10.0812 30.381
1.84768 7.23727 29.4789
2.0779 7.24173 21.4834
1.36195 7.06973 44.6622
2.95087 10.2369 27.1473
1.67049 6.4598 34.0146
2.19838 7.32507 32.6233
2.16823 7.12526 28.8243
1.96531 9.26857 24.8411
1.61693 6.39951 33.5218
2.10327 9.60195 37.4571
2.51382 4.74361 21.305
1.44758 6.85788 18.8967
1.17732 6.52903 18.7584
1.0835 2.90796 23.3787
1.58229 11.6315 36.1598
2.2605 8.77481 34.7943
2.30464 10.1523 57.3855
3.73339 10.7983 38.1136
2.49222 7.85293 22.4363
1.49694 7.17045 21.7288
1.3858 3.35088 34.0079
2.41977 9.99835 20.5357
1.20362 5.63457 25.7702
1.5794 4.76613 14.3768
1.0814 7.42656 22.099
1.5308 7.10338 32.933
1.96392 6.03346 24.9036
1.4349 6.04253 30.1712
1.71447 6.61266 11.6209
0.698358 4.97459 26.1974
1.70183 5.25539 24.3128
1.68881 8.87978 30.861
1.97043 5.6211 27.58
1.72309 6.36426 32.6874
2.39733 12.1966 39.2819
2.36641 4.92707 21.0176
1.44162 6.55097 26.8828
1.87179 7.16051 21.7105
1.26975 6.71551 28.754
1.61444 6.74899 23.1043
1.44704 6.00897 30.9449
2.02841 5.92976 43.5319
2.89765 12.1772 24.2571
1.48028 7.75584 28.781
1.63126 4.5351 15.6655
0.881892 3.38006 21.0829
1.26102 3.6926 13.7417
0.86735 4.03228 30.587
1.9674 11.6463 33.0263
2.10377 11.982 34.3926
2.15873 7.2527 46.5519
2.94771 12.7864 36.4592
2.11939 8.00947 32.3341
1.91353 7.85035 32.3211
1.97875 6.45133 30.3107
1.98486 8.35833 29.7311
1.94765 8.39892 53.9673
3.39125 13.1663 29.5084
1.92642 5.59331 28.2427
1.66861 3.398 18.9834
1.25673 5.89694 18.9228
1.22418 9.16125 37.2495
2.30355 6.605 24.7345
1.73283 7.15825 34.25
2.23861 7.77933 45.8348
3.01144 11.9859 31.3716
2.02129 7.5295 31.2594
1.93759 10.3032 29.0527
1.9431 2.6062 19.2434
1.30963 7.65455 21.0294
1.44845 4.51537 21.9196
1.37407 7.6048 27.4619
1.89413 5.95311 22.1133
1.44324 6.72727 26.8319
1.64843 5.27388 14.1595
0.819537 3.67203 28.477
1.72769 6.15282 26.3477
1.54525 6.55057 37.0111
2.43857 8.13753 22.966
1.60049 5.3276 29.6137
1.80153 5.45581 27.2497
1.76401 11.0529 49.4832
3.11661 12.2403 49.5307
3.14301 7.68357 24.1507
1.69488 7.55768 34.3549
2.20334 9.42567 28.6427
1.75222 6.97265 36.1782
2.52157 7.92344 31.0543
2.09961 10.0889 28.5257
1.96346 7.17285 35.3963
2.10492 0 0