# pn-170911/RbIIA-36-RbIIA-1280-1959.psd
# Power spectrum* (dif=0,1,2) (really just |FT|^2)
# NOTE: only the first half! (symmetric)
# weeks: 1280-1959
# 1023 clock-days, 653 excluded
# PSD: 1441
6132.61 0.339033 0.0135966
776614 11.8773 0.00923743
2.78091e+06 57.7811 0.0119525
547975 17.781 0.0100018
347128 21.6572 0.0120712
166815 15.2434 0.0109729
109552 15.1108 0.0131322
79927.5 13.8157 0.0141524
63450.9 16.4066 0.015051
48738.5 13.3075 0.0158446
50509.4 18.679 0.0194511
31424.3 12.2491 0.0199037
31264.4 14.2376 0.0216177
20637.5 12.6855 0.0199004
15492.5 9.5386 0.0180347
15672 11.7844 0.0246146
11826.8 10.682 0.024449
11064 10.5378 0.0271703
8938.37 9.41256 0.025387
7740.7 9.53391 0.0277819
7624.09 9.92879 0.0293522
6510.23 9.83059 0.0327618
6412.76 10.6675 0.0321161
6018.86 10.639 0.0378604
5628.74 10.2255 0.0407536
4756.72 9.21206 0.0375667
4298.24 9.69509 0.0423185
4005.18 9.66228 0.0469777
3648.41 9.42122 0.0449248
4015.59 10.2836 0.0506304
3674.7 10.2121 0.0643865
3224.32 9.86899 0.0585979
2842.76 9.07314 0.0538013
3017.36 11.014 0.0675106
2562.84 9.78274 0.0635113
2483.64 9.87955 0.0665012
2158.03 9.43732 0.0691579
2160.14 9.15247 0.0726161
2171.86 9.55693 0.075255
1904.24 8.29814 0.0700761
1800.45 8.74481 0.079757
1842.97 8.84747 0.0820579
1770.62 9.53581 0.0887744
1513.85 9.1013 0.092792
1382.37 8.21826 0.0868646
1325.55 9.19312 0.103353
1439.49 8.70911 0.10253
1206.54 8.60811 0.0999421
1115.91 8.22442 0.100032
1136.18 8.56427 0.114865
1094.07 8.62682 0.114403
1022.35 8.50587 0.117894
1110.15 8.723 0.118219
985.29 8.78199 0.12727
1047.33 9.17524 0.147373
839.932 8.32628 0.1359
855.596 8.84984 0.141312
922.868 8.96233 0.148151
787.691 8.23984 0.145321
797.898 8.76335 0.162539
731.834 8.39475 0.153663
700.15 8.76605 0.16501
777.134 8.44989 0.165849
713.499 8.98571 0.184091
682.683 9.08283 0.190335
622.683 7.66207 0.166962
680.104 8.9639 0.197115
652.676 8.67341 0.197884
591.968 9.06798 0.20363
644.604 9.3533 0.223708
586.155 8.26975 0.200968
538.603 8.623 0.214438
600.66 9.39785 0.242219
516.716 8.71648 0.228234
512.394 8.69462 0.23217
468.431 8.78673 0.24253
506.296 9.28538 0.27028
454.144 8.30476 0.24414
457.616 8.73499 0.258933
426.294 8.20392 0.257754
437.721 8.54919 0.269952
425.185 8.72347 0.285117
409.927 8.65685 0.288576
393.177 9.1474 0.315835
384.482 8.17391 0.282723
406.735 9.37008 0.327032
363.825 8.05279 0.292998
350.522 8.20467 0.302851
366.311 8.66768 0.322054
352.129 8.56329 0.32625
314.165 8.21203 0.327394
340.325 8.9038 0.369626
309.925 8.39432 0.339897
321.092 9.08752 0.382571
295.122 8.7195 0.375063
302.051 8.66721 0.377722
290.515 8.38073 0.366212
284.32 8.13866 0.372433
269.579 8.24112 0.372857
276.316 8.62806 0.403704
254.74 8.32329 0.409905
283.273 8.58649 0.417047
272.404 8.88723 0.437957
269.891 8.77854 0.445944
262.569 8.38616 0.434737
236.344 8.54998 0.466377
243.407 8.41203 0.45338
233 7.86147 0.435156
254.418 8.84428 0.498486
234.654 8.08325 0.465822
218.174 8.46516 0.495868
237.918 8.50979 0.507632
210.093 8.0831 0.482088
199.613 8.17638 0.503307
199.999 8.09679 0.507104
215.755 9.01643 0.57759
212.499 8.69778 0.563935
205.221 8.40943 0.558002
190.413 8.19578 0.548875
197.147 8.56736 0.572572
187.672 8.63362 0.590842
186.388 8.95262 0.627526
187.137 8.77938 0.621032
170.782 8.00946 0.57453
197.917 8.94585 0.653931
186.671 8.54858 0.643297
185.314 8.42102 0.650443
182.299 8.49803 0.641072
181.603 8.95108 0.705796
165.548 8.47245 0.673881
168.955 8.29977 0.671164
169.498 8.76457 0.726061
151.98 8.56604 0.718619
149.393 7.93818 0.673269
150.172 8.2009 0.709878
151.114 8.0893 0.705993
148.855 8.2257 0.734559
147.306 8.75522 0.790044
134.962 8.02941 0.728655
139.497 7.97331 0.745471
139.127 8.61907 0.805795
131.434 8.77003 0.828276
143.758 8.95993 0.85383
134.484 8.68245 0.841382
132.73 8.60712 0.869169
135.062 9.64275 0.950659
133.885 8.78788 0.88929
138.603 9.0319 0.930221
136.324 8.70252 0.900563
122.164 8.29957 0.889747
119.408 8.42125 0.884723
126.61 8.8408 0.951246
120.029 8.35809 0.929856
117.832 8.3478 0.940408
113.699 8.29976 0.932623
109.387 8.31828 0.937404
105.9 8.0579 0.939819
113.577 8.51851 0.985886
116.549 8.39727 0.992164
115.28 8.6793 1.05018
112.977 8.64892 1.04242
109.804 8.70106 1.06575
105.745 8.73906 1.08686
100.958 8.46357 1.05026
94.4404 7.90924 1.03381
99.2657 7.8543 1.00732
101.705 8.22088 1.06975
96.9515 8.3097 1.10108
101.769 8.41264 1.11857
95.2409 8.29072 1.10927
100.231 8.81956 1.19598
90.967 8.15681 1.13241
95.5557 8.51562 1.17914
91.9602 8.6886 1.22876
92.4796 8.19653 1.17013
86.2159 8.30072 1.20518
87.6487 8.28165 1.20531
87.6717 8.4484 1.2484
87.2458 9.0173 1.34398
86.6358 8.50821 1.30217
83.6914 8.17687 1.25451
84.1574 8.54999 1.32212
83.6068 8.55511 1.33689
82.5294 8.79705 1.36305
79.9482 8.46723 1.36626
79.5758 8.16662 1.30817
79.4381 8.28926 1.3343
76.0745 8.42489 1.38868
76.6562 9.07078 1.50522
84.8242 8.94972 1.51713
78.2101 8.19235 1.40356
77.9203 8.68354 1.49021
71.8463 8.04321 1.40752
75.4805 8.53279 1.48016
72.6472 8.33453 1.48132
71.4627 8.65597 1.5602
69.0989 8.14635 1.45908
75.684 8.68367 1.55317
70.8313 8.16826 1.49063
68.164 8.3013 1.52985
68.9076 8.52675 1.62808
68.5293 9.29124 1.75635
66.556 8.25654 1.59115
66.8577 8.30029 1.616
66.3816 8.391 1.64872
63.9654 8.03958 1.60814
64.3814 8.33395 1.64441
68.7916 8.34101 1.67046
70.9259 8.70441 1.78043
62.3082 8.45194 1.72297
64.9152 8.1926 1.68528
63.6379 8.70059 1.79593
61.863 8.03377 1.68997
62.2275 8.24419 1.76478
57.0247 7.82179 1.68325
58.973 8.70734 1.8634
56.8132 8.45815 1.82676
55.0317 8.31415 1.85367
62.3459 8.75397 1.93434
54.0997 7.95444 1.80638
57.8224 8.37875 1.89836
57.9849 8.24923 1.92893
61.9465 9.01596 2.05193
53.0579 8.50939 1.99453
52.8602 8.283 1.92796
54.2299 8.33457 1.97738
54.7694 8.18995 1.92929
54.3729 8.49276 2.06637
54.406 8.67274 2.10013
57.5891 8.7907 2.1369
55.0732 8.68753 2.15182
53.4186 9.10567 2.26253
53.3001 8.70502 2.21655
48.4754 8.09578 2.04517
53.7423 8.60893 2.22486
53.5024 8.42833 2.17518
52.5905 8.78095 2.29406
50.1564 8.93133 2.32982
52.9639 9.19606 2.42443
47.7522 8.57012 2.29269
47.3586 8.88903 2.38059
48.3651 8.46269 2.29571
46.6277 8.79518 2.39726
46.8744 8.41048 2.31482
48.2853 7.94331 2.19676
50.7463 9.30728 2.61168
50.2565 9.24453 2.58512
46.7446 8.85701 2.50655
43.5351 8.68042 2.45928
47.0962 8.62097 2.5258
47.8472 8.94421 2.59938
45.1424 8.47969 2.4836
44.8326 8.5665 2.53391
47.7355 8.6505 2.55682
46.5438 8.8694 2.64873
43.8625 8.61278 2.60521
41.5434 8.30127 2.50651
43.8236 8.60867 2.66735
42.4679 8.07155 2.48019
43.1833 8.76126 2.74067
42.282 8.58909 2.69165
44.4941 8.61018 2.70859
43.4649 8.35002 2.6434
39.949 8.51708 2.74205
37.8554 8.8434 2.87906
42.512 8.95138 2.94281
38.8848 8.77553 2.82089
37.8468 8.66753 2.87102
37.9644 8.31528 2.76127
39.352 8.71972 3.00017
40.0523 9.42521 3.16256
36.7596 8.62096 2.88118
37.3032 8.83836 3.05464
37.2178 8.2738 2.84749
39.4286 8.251 2.84898
37.5396 8.58738 3.03106
35.8524 8.36653 2.94906
36.9835 8.65035 3.09747
36.0689 8.26734 2.96975
38.4399 9.00664 3.21849
36.5731 8.2524 3.00873
38.5244 8.93548 3.21962
38.0235 8.88795 3.26095
37.8946 8.43903 3.13996
38.7494 8.9569 3.33422
35.2338 8.84781 3.3304
35.5033 8.78443 3.35551
34.1674 8.53002 3.23763
35.7397 8.42302 3.23258
35.0888 8.67658 3.27205
32.0469 8.21836 3.21183
34.8431 8.48548 3.32242
34.678 8.91142 3.46031
35.45 8.51401 3.38
34.4144 8.75281 3.46776
31.6589 8.24169 3.33379
34.0167 8.54209 3.46071
32.6921 8.91326 3.60525
35.3368 9.14119 3.7459
32.0281 8.56772 3.48351
29.8769 7.90594 3.30583
33.1084 8.82054 3.70866
33.6501 8.97458 3.7291
31.9113 8.83878 3.77587
30.8431 8.61342 3.62215
31.0352 8.42452 3.57523
32.4544 8.74721 3.75083
32.1239 8.65122 3.7077
29.3855 8.12401 3.51946
30.4271 8.90372 3.89952
29.909 8.81324 3.93401
33.3199 8.90868 3.9278
32.9911 9.46574 4.22893
28.6458 8.41379 3.81933
29.028 8.72448 3.96605
31.2981 9.36934 4.25298
29.2982 8.83632 4.02996
28.6602 8.30565 3.84188
30.0034 8.82823 4.0448
27.0601 8.48215 4.04148
29.5559 8.88901 4.09896
26.7351 8.5635 4.06293
28.9329 9.18188 4.34957
26.4161 7.96331 3.85003
26.924 8.68008 4.14313
28.7573 8.48781 4.13232
28.9521 8.73959 4.17589
26.9116 8.84784 4.30773
27.0309 8.61085 4.24409
28.4538 9.21966 4.50597
29.7254 9.12936 4.60194
27.6182 8.63693 4.31413
27.4717 8.8569 4.47774
25.5043 8.74192 4.54084
26.8836 8.94914 4.4783
28.9349 9.25739 4.7846
25.6304 9.06746 4.67562
27.0257 9.08954 4.72437
26.6576 8.50904 4.4157
25.1614 8.59427 4.44652
24.887 8.98539 4.75823
26.4314 9.22746 4.97037
26.2805 8.55369 4.50618
25.9059 9.2061 4.84658
25.2452 8.95787 4.8873
24.3379 8.74176 4.75518
26.2514 9.2956 5.03616
25.9767 8.91604 4.83141
23.9035 8.8335 4.88942
25.541 9.05655 4.87643
23.5229 8.21868 4.64257
25.8387 9.59703 5.35556
23.2909 8.63643 4.83695
23.6787 8.68505 4.83646
24.7256 9.03279 5.17671
24.3806 9.07085 5.1346
23.7171 8.49981 4.92441
22.7323 8.69831 5.0383
22.3664 8.71375 5.11595
22.2308 8.47197 4.98916
22.1489 8.37867 4.8695
24.3639 8.9127 5.20956
21.7664 8.63479 5.07795
21.6001 8.64247 5.2177
22.5789 9.09364 5.39424
22.4615 8.53447 5.11297
23.0078 8.98084 5.45583
21.2339 8.61654 5.21456
22.5175 9.22019 5.54882
21.1699 8.7273 5.41507
22.0001 8.25507 5.09263
22.6739 8.8252 5.4805
21.3703 8.93698 5.5989
21.223 8.78721 5.58193
22.0039 9.40214 6.05436
23.6122 8.99935 5.57866
22.2645 9.23205 5.88603
20.2316 8.36353 5.45985
21.3124 8.84752 5.61643
23.0922 9.13561 6.00367
21.9446 8.7185 5.64401
21.0582 8.97674 5.9122
22.1456 9.06265 5.93185
21.1782 9.23571 5.97366
20.3486 8.5913 5.62818
20.266 8.49637 5.66876
20.6935 9.2062 6.23823
20.6847 8.65107 5.86107
21.6322 9.28908 6.22959
20.1904 8.45076 5.70477
20.6927 9.1988 6.31138
20.4384 8.87054 6.03798
21.1544 9.27531 6.30627
20.8121 9.1186 6.36458
18.8362 8.88168 6.11485
19.0038 9.09289 6.42713
18.278 8.57223 6.01711
20.5841 9.11982 6.2869
18.7276 8.24806 5.91605
18.7871 8.92736 6.44075
18.6244 8.70765 6.19009
18.0948 9.08289 6.6914
18.7043 9.03564 6.59417
19.6732 8.80866 6.32962
18.6358 8.96072 6.3843
18.5794 9.01171 6.7202
19.4103 8.95723 6.61413
17.9709 8.87266 6.52189
17.5074 9.03685 6.75078
18.148 8.75818 6.55244
19.645 8.8704 6.66173
19.886 9.50128 7.16941
17.7378 8.95054 6.65718
16.7271 8.18967 6.23139
18.3946 9.29458 7.01275
19.142 9.24903 7.07129
17.7195 9.18241 7.22879
17.3865 9.00913 7.07832
18.2508 9.13313 6.97323
17.9703 8.79235 6.99544
18.3442 8.59415 6.63028
17.9892 8.89225 6.8913
17.6049 8.63288 6.734
17.5379 9.13009 7.29745
18.4998 8.76738 6.87514
17.9312 9.03766 7.29221
16.9095 9.22044 7.4423
17.3495 9.1247 7.42894
18.306 8.58074 6.85312
16.8149 8.91385 7.25898
16.5732 8.92654 7.2453
16.2348 9.2582 7.51496
16.3148 8.4829 7.04844
16.8589 8.92868 7.54328
15.908 8.71383 7.30369
15.7716 9.22126 7.91996
16.657 9.121 7.45685
17.2222 9.13865 7.62377
17.2258 9.64338 8.2655
17.196 9.14078 7.70001
15.6031 9.14767 7.76741
15.4563 8.40972 7.35352
16.3514 9.10361 7.69873
16.3064 9.26422 7.88649
14.4568 8.59615 7.68104
15.9415 9.05737 7.89684
16.9821 9.5999 8.38399
15.5324 8.58622 7.50093
15.7268 9.33045 8.38585
15.1941 9.3069 8.12288
15.4324 9.2302 8.02217
15.9873 9.11377 8.21695
16.2712 9.74423 8.74268
15.9749 9.33947 8.30351
15.1986 9.23278 8.38531
15.5679 8.58582 7.81194
16.2813 8.91875 8.13911
14.8945 9.024 8.29787
14.2755 8.88935 8.34802
15.6249 9.31335 8.5719
15.2918 9.16489 8.47221
14.871 9.48704 9.13348
15.6316 9.22639 8.56769
14.3641 8.86547 8.22545
15.3346 9.16439 8.91852
16.1726 9.19883 8.3656
14.8714 9.43549 8.79845
13.9936 8.73972 8.37611
14.3974 8.81722 8.33464
15.9742 9.40457 8.88561
15.3508 9.1916 8.94662
14.4583 9.04037 8.74204
13.2292 8.96892 8.66654
14.1618 8.86375 8.71985
14.6967 8.83662 8.51564
14.1766 9.1419 8.90289
12.8419 8.8823 8.68239
14.0179 9.5906 9.47656
15.3114 9.61739 9.43921
13.5464 9.10937 9.1358
13.921 9.17756 8.96367
12.7953 9.33187 9.55127
13.7823 9.21285 9.28846
14.0803 9.08676 9.41028
13.0483 8.79176 8.93662
13.5832 9.35774 9.40108
12.13 8.79716 9.16121
13.4687 9.56149 9.89777
13.5324 8.83074 9.10357
14.0089 9.57517 9.71325
12.9352 9.02833 9.27899
13.1478 9.17136 9.71449
14.1533 9.78236 10.0973
13.0051 8.9804 9.45687
12.9693 9.27515 9.86691
13.5666 9.21068 9.96476
13.6037 9.49075 10.2527
13.8568 9.25544 9.69897
12.6152 9.27895 9.81671
12.4747 9.66261 10.2143
13.1389 9.33924 10.0683
13.4168 9.32605 10.0111
13.3758 9.70219 10.5114
12.8621 9.43191 10.2241
13.0278 9.38504 10.0405
12.4494 9.07329 10.1523
12.8718 9.07635 10.2293
13.0039 8.92137 9.71265
12.9127 9.36051 10.3118
12.7042 9.09536 10.1487
12.5552 8.99996 9.96439
11.7171 8.97466 9.98718
12.3813 9.34548 10.7134
12.0793 9.65166 10.6943
12.9955 9.41065 10.8976
12.8228 9.05933 10.153
12.0686 9.20695 10.7688
11.6438 9.09449 10.4914
12.4333 9.09689 10.4301
13.0174 9.10286 10.4041
12.6714 9.33708 10.8039
11.91 8.79953 10.1544
11.7964 8.95561 10.2704
12.2893 9.75098 11.7146
12.5919 9.53867 11.0647
11.8695 9.10077 10.4686
11.0881 9.05082 10.7933
11.9077 9.22983 11.0049
12.1995 9.64325 11.4187
11.6483 9.22619 11.2188
11.2072 9.29575 10.8726
11.2682 9.95388 11.9604
12.5686 9.71966 11.4528
12.2571 9.52067 11.3559
10.8464 9.26697 11.6969
11.469 9.49699 11.7653
11.4697 9.32898 11.249
11.6779 9.52918 11.6622
11.956 9.65059 11.7698
11.4838 9.15912 11.3819
11.8865 9.76468 12.2335
11.5683 9.61014 11.4805
11.3912 9.1421 11.5148
10.826 9.11744 11.4194
10.7224 9.33719 11.7354
10.9839 9.41528 11.5322
11.3284 9.60115 12.1003
11.3445 9.24746 11.8024
11.1634 9.16845 11.4577
10.3293 9.07481 11.707
11.2001 9.22258 12.0267
11.519 9.30195 11.8382
11.0717 9.25838 11.8945
10.8499 9.13116 11.5847
11.2763 9.68097 12.486
11.219 9.44172 12.4343
11.2343 9.33149 12.0225
10.6691 9.68984 12.9338
11.5337 9.84151 12.7328
11.0918 9.55353 12.6595
11.7799 10.6211 13.6192
10.8177 9.30977 12.3352
10.8521 9.88018 13.3262
10.7326 9.45022 12.7403
10.5479 9.22423 12.5757
11.6017 9.68771 13.2318
10.8906 9.89682 13.3402
11.3871 10.6534 13.7838
10.5412 9.91394 13.4442
10.9588 9.47929 12.5193
11.3558 9.83501 13.338
10.4944 9.84462 13.6801
11.2321 10.134 13.6249
10.8227 9.54945 12.9349
10.5484 9.41568 13.1239
10.4752 9.88416 13.2929
9.53927 9.36614 13.5876
10.3693 9.59937 13.0616
10.6891 9.31699 12.7704
10.4425 9.70531 13.2483
9.84255 9.7352 13.9534
10.43 9.60164 13.331
9.89948 9.22495 13.0592
10.5563 9.833 13.9794
10.1856 9.77227 13.5617
9.64361 9.65509 13.9461
10.2183 9.73739 13.9483
10.2165 10.0544 14.5424
10.3803 9.33407 13.3455
9.82135 9.56162 13.9875
10.1766 10.1273 14.3137
10.9465 9.94565 14.3033
10.766 9.75101 14.0049
10.2789 9.82329 14.0374
9.44876 9.43833 13.9992
9.83097 9.3171 13.5489
10.6221 9.79579 14.2779
9.53712 8.86943 13.379
9.25426 9.10724 13.3721
9.3535 9.29849 14.1095
10.7847 10.1063 14.9972
9.94956 9.84493 14.4959
9.91391 9.57859 14.0583
9.42568 9.67335 14.5589
9.33639 9.3797 14.0088
10.3295 9.49441 14.6613
9.74993 9.98317 15.1045
9.23303 9.60608 14.4957
9.27464 10.0338 15.1815
9.63598 9.6832 14.8946
10.3404 9.98339 14.7352
9.69134 9.86317 15.0591
9.33171 9.8897 15.7699
9.32807 9.39795 14.2784
9.13356 9.74882 14.8247
8.98017 9.5052 14.7196
8.90249 9.04685 14.1402
9.07576 9.51995 14.9356
8.87704 9.40716 14.6442
9.5031 9.56652 15.0886
9.70987 9.85084 15.313
9.30501 10.1657 15.7187
9.42409 9.93327 15.8491
9.30906 10.0156 15.8262
9.51183 9.67005 15.7761
9.18507 9.89196 15.5566
8.96143 10.0968 16.2113
9.07692 9.28149 14.5662
9.61995 9.88192 15.4769
9.18911 9.73457 16.4538
9.16683 10.413 16.7056
9.22278 9.85269 15.5527
9.12897 9.6168 15.58
8.90484 9.29485 15.1974
9.39363 10.583 17.2319
9.0516 9.99746 15.9855
9.18652 9.6579 15.7144
8.92619 9.61421 15.3433
8.8409 9.7592 16.5414
8.62248 9.28688 15.3839
8.49593 9.41083 15.3831
8.97253 9.7768 15.9999
9.18547 9.86114 16.4101
8.40835 9.94925 16.8794
8.1579 9.15997 15.2345
8.79645 9.87697 16.5812
8.78511 9.85187 15.9149
8.41323 10.0049 17.2153
8.71937 10.4885 17.0412
7.99512 9.54906 16.8742
8.56472 9.46477 15.8948
8.6782 9.76326 16.4462
8.38527 9.86184 16.5437
8.39141 10.2153 18.0693
9.10422 10.1015 16.1925
7.95296 9.64514 17.2359
8.42436 9.66136 16.5535
7.9147 9.46397 16.5428
7.87334 9.36413 16.6505
8.68216 9.47858 16.1305
8.84896 10.4464 17.8983
8.58255 9.93617 17.3285
8.30744 9.93229 17.9578
8.34858 9.84023 17.0441
8.20989 9.59707 17.1647
8.213 10.1343 18.1142
8.41567 10.1181 17.6939
7.62976 9.62706 16.6498
8.44854 10.0363 17.3178
8.19522 9.15089 16.8128
7.8742 9.91722 17.7272
7.70828 9.84021 17.5326
8.29116 10.3174 18.2584
8.38831 9.97976 18.3308
8.2748 9.76694 17.5263
7.85582 9.25822 17.3562
8.25651 10.0197 17.7895
8.43528 9.8029 17.7345
7.9439 9.64325 17.5952
8.04451 9.88742 17.8468
8.09445 9.72285 17.9785
8.35772 9.8278 18.294
8.34672 10.1336 18.6149
7.74431 9.64954 17.8465
8.06943 10.236 18.4929
8.18398 10.4206 19.1246
7.88826 9.61949 17.5911
7.94212 9.81119 18.4117
7.57681 9.13216 17.0576
7.39518 9.44448 17.6002
8.07818 9.56105 17.6304
8.02431 9.30348 18.2607
7.94663 9.77842 18.7871
7.74155 9.92763 18.834
7.66052 9.79126 18.0006
7.75895 9.95436 18.8002
7.71107 10.7631 19.9735
7.67899 9.72051 19.4253
7.98581 9.7408 18.2402
8.00147 10.0667 19.2494
7.14345 9.72719 18.7266
7.43895 9.35731 17.8312
7.34404 10.2477 19.3128
6.87665 9.70186 19.2892
7.67676 10.0743 19.9721
8.40255 10.4689 19.2658
7.04682 9.41388 18.4403
7.27325 10.1882 20.1606
7.81455 10.0111 18.9171
7.32386 9.81869 19.6761
7.59034 9.9979 19.2724
7.20875 9.76678 19.6991
7.38619 10.1283 19.8047
7.45184 10.6025 20.9197
7.30578 9.71511 19.8944
7.71904 10.4985 20.1001
7.77863 10.849 21.6416
7.59895 10.0462 20.0481
8.59604 10.7121 20.8629
7.97378 10.1725 20.2371
7.15269 10.1176 20.4256
7.51655 10.4597 20.6746
7.52037 9.72283 19.9265
7.73698 9.98796 19.8501
7.37536 10.2092 20.1615
7.03578 9.64337 20.3757
7.97022 11.1396 22.424
7.32406 11.0762 22.0415
7.36075 10.2356 21.1341
7.53568 9.95241 20.2147
7.37439 10.3371 21.4227
7.99436 11.1771 22.5921
7.25596 10.9893 21.8474
7.49461 10.5591 22.0281
7.31339 10.6474 22.0856
7.08583 9.79166 19.9554
7.28064 10.0492 20.7299
7.68194 10.283 21.9383
7.17425 10.0211 20.0036
6.44907 9.91795 21.1691
7.30708 10.7317 22.425
7.91666 11.0717 22.9561
7.53094 10.6285 21.9255
6.72472 10.2038 21.3782
7.07873 10.5509 22.323
7.12889 10.1984 21.1698
7.25469 10.2372 21.2836
7.20081 10.6731 22.899
6.69282 10.0891 21.3548
6.99769 10.3217 22.1612
6.97519 10.0787 21.4714
6.75303 9.90551 21.4287
6.45976 10.0392 21.8075
6.93803 9.77779 20.8773
7.50905 11.0262 23.1654
6.75311 10.0857 22.2822
6.99189 10.1546 21.5256
6.35977 10.0247 22.1232
7.03849 10.0257 21.8682
6.95209 10.785 23.4252
6.87075 9.9297 21.5021
6.7728 9.90072 22.036
7.49664 10.8636 23.1388
6.86225 9.96968 22.0405
7.08704 10.1885 21.8692
6.62417 10.0383 22.2676
7.1663 10.0579 22.1985
7.22637 10.8343 23.2216
7.08437 10.529 23.8071
6.88465 10.2662 22.5126
6.68424 10.354 22.3549
6.51294 9.87679 22.6555
7.46304 11.1773 23.7691
6.6915 9.81594 22.954
7.11223 10.2305 23.1836
6.68102 9.8731 21.8864
6.85187 10.4168 23.8438
6.43935 9.73494 22.0956
6.53555 9.67069 21.9929
6.64104 10.0526 21.3965
6.20093 9.99979 22.9848
6.64908 10.5502 23.7701
6.99815 10.4312 24.2235
7.32232 11.0046 23.6137
6.457 10.4403 24.6699
6.76045 10.5482 23.9777
6.38613 10.4711 24.5382
6.73477 10.5731 24.371
6.5787 10.5448 22.4193
6.09193 10.4546 24.1421
6.69888 10.9004 25.4468
6.4588 10.4418 24.09
6.48042 10.7698 24.3687
6.59593 9.87054 22.8503
6.14012 9.56564 23.1146
6.79858 10.5605 24.0642
6.17846 10.2988 24.6259
6.25754 10.5234 24.682
6.23352 9.68726 22.9387
6.60015 11.0393 25.164
6.32394 9.73499 23.4487
6.12144 10.6774 24.6851
6.26902 9.89929 24.6775
6.38777 10.6698 25.4028
6.26289 10.4137 24.6511
6.25971 10.3161 24.0703
6.49902 10.4498 24.3592
6.12021 10.5465 25.0357
6.50631 10.9368 25.898
6.44462 10.0395 24.1599
6.12806 10.0088 24.4831
7.00788 11.4279 26.3777
6.34239 10.8139 25.7022
6.24561 10.004 24.4447
6.64918 10.4909 24.889
6.171 10.4475 25.5481
6.31664 10.3138 24.9937
6.04894 10.9249 26.6862
6.94777 10.8532 26.2601
6.34718 10.343 24.6547
6.13003 10.3937 25.2761
6.19909 10.4624 25.5794
6.49454 10.457 25.7648
6.40479 10.658 25.9774
6.19056 9.94402 24.444
5.92803 10.2181 25.5822
6.38077 10.5034 25.1945
6.25312 9.94888 24.3967
5.90958 10.5451 26.5788
6.30674 11.0101 26.8488
6.18173 10.2951 26.362
6.27156 10.4068 25.445
6.5035 10.6784 24.9115
5.87669 10.703 27.2197
6.02172 10.6037 26.9985
5.97478 10.3726 26.2152
5.98926 10.8336 27.1569
6.2374 10.2818 26.1841
6.18201 10.5035 26.443
6.23313 10.6822 26.8721
6.21814 10.8019 26.3875
5.73006 10.3048 25.9799
5.76365 10.7271 26.1845
6.00648 11.1536 29.0275
6.37669 10.163 26.183
5.91875 10.5381 25.8847
5.91248 10.4917 27.2797
6.13067 10.146 25.7013
6.01097 10.9902 27.8954
6.06403 10.3715 27.5346
6.39162 10.9906 27.8341
6.10427 10.4488 27.0918
6.29476 11.6291 29.1491
6.00895 10.6209 26.4241
6.14691 11.1177 28.824
6.1549 10.0907 27.0633
6.06749 11.1555 28.7415
6.1418 11.7049 29.5594
6.31478 11.5035 29.8868
6.38539 11.6036 29.7702
5.83886 11.2932 29.3843
5.76452 10.5838 28.4079
6.03441 11.1308 28.1397
6.0888 10.9785 28.7654
5.83888 10.7028 28.2214
6.22224 11.4708 30.1709
6.18835 10.8634 29.778
6.26008 11.6887 29.455
5.72952 11.1032 29.5375
5.78934 11.1933 29.3945
5.9972 10.594 28.1137
5.87354 10.9784 28.7779
5.91793 10.9802 28.8542
5.81045 10.6554 27.5971
5.64725 11.1484 29.3935
6.12232 11.1912 29.5559
5.69685 10.6632 29.4486
5.77095 11.2272 30.4454
5.87854 11.1145 30.198
5.53772 10.8588 28.9513
5.56986 10.6803 29.1852
5.60999 10.3821 29.005
6.0651 10.9365 28.47
5.76991 10.6558 29.4982
5.59362 10.4761 27.5103
5.50063 10.3255 28.7257
5.8856 11.0007 29.4559
5.78558 10.6947 28.5288
5.77963 11.0058 29.4249
5.60462 10.7543 29.3581
5.93697 10.7159 28.5647
5.39202 10.513 29.7522
5.57015 10.8512 29.3641
5.52959 10.9145 29.6129
5.69656 11.2144 30.0356
5.56665 10.517 29.3013
5.39471 10.2935 29.3348
5.39574 10.3294 27.7566
5.58211 10.7207 29.9795
5.68395 10.9236 31.0226
5.7639 11.0341 30.9159
5.8866 10.5053 29.4588
5.60528 10.7688 29.1016
5.91385 11.0538 29.8569
5.60369 10.3443 29.0791
5.46255 10.551 29.1027
5.39637 10.2492 29.8332
5.93693 11.404 31.4302
5.61317 10.5707 30.5603
5.79194 10.5957 29.2614
5.69943 10.8305 29.3588
5.45036 10.4403 30.6811
5.56273 11.0164 31.3899
5.6072 10.9097 30.61
5.63102 11.0306 31.2742
5.54065 11.1113 30.6891
5.39786 10.4209 29.8075
5.38028 11.2404 31.5463
5.47326 10.7425 31.1534
5.78202 11.6586 32.5442
5.68282 11.0033 31.3118
5.87819 11.0401 30.9053
5.2369 10.9538 31.1534
5.44587 10.5775 29.1823
5.18787 11.0958 31.127
5.31609 10.9796 31.8228
5.39199 11.1097 32.2987
5.71999 11.4917 32.9201
5.93937 11.0562 31.9723
5.51202 10.9781 31.6164
5.32134 10.7466 32.256
5.76707 11.3209 31.5085
5.63564 10.8364 30.8341
5.16634 10.7872 32.2146
5.5425 11.3735 31.6705
5.08982 10.9916 32.5694
5.44757 10.2581 30.4293
5.46714 11.1595 32.0816
5.2534 10.8426 31.3552
5.39603 10.263 30.3206
5.4705 10.9602 32.9836
5.58303 11.1928 32.7234
5.11585 10.9949 31.0448
5.09563 10.6044 31.9812
5.95942 11.0725 30.8877
5.09162 10.9868 32.3242
5.46366 11.2596 34.1628
5.83038 11.3914 32.4899
5.21283 10.7518 31.7169
5.06889 11.0774 33.0123
5.16428 10.8248 33.8742
5.54922 11.2453 31.7883
5.0675 10.3933 31.7149
5.19086 10.8051 32.4147
5.06508 10.5207 30.8986
5.14123 11.0865 33.2156
5.36586 11.066 32.9029
5.37393 11.0392 33.3789
5.32677 11.746 34.6154
5.37606 11.228 32.6814
5.25128 10.8239 32.2239
5.12828 11.2775 32.4381
4.84554 10.6839 32.8872
5.05781 10.9019 33.5994
5.6124 11.3572 34.1538
5.50139 10.7136 34.256
5.13197 11.1657 32.7542
5.13964 10.9744 33.8078
5.03478 10.3475 30.8869
4.85824 10.4371 32.1498
5.07531 10.9052 32.3787
4.96846 10.8267 33.5227
5.31052 10.9628 34.0011
5.09928 11.1171 33.6374
5.21253 11.5112 35.3876
5.47691 11.691 36.1421
5.35112 10.698 32.3439
5.22456 11.1228 34.7314
5.25476 11.0096 34.4282
5.01656 11.6099 34.5361
4.96465 11.0666 32.1206
4.82328 10.8456 35.1576
5.39057 11.1169 33.99
5.15834 10.9683 32.7088
5.15537 10.8927 34.0513
5.19953 11.6818 35.9064
4.87551 11.3429 35.8631
5.21022 10.9269 32.6036
4.73919 10.832 34.4897
5.16055 11.142 34.1243
4.96173 10.2636 33.0906
4.94004 11.2324 36.2298
5.57563 11.1531 33.8928
5.16365 11.327 35.05
4.9998 10.7491 34.259
5.2067 11.2354 33.6592
4.96007 11.9516 37.9216
5.23947 11.035 33.5658
4.94091 11.1225 36.1168
4.92481 11.0897 34.6138
5.31561 11.5562 34.4193
4.91815 11.0193 36.4477
4.9977 10.8628 34.7627
5.20191 11.8871 36.3928
4.98562 10.4955 33.7897
4.97895 11.329 34.4981
4.85661 11.1868 35.4011
4.83315 11.1546 38.4304
5.42023 11.5852 36.3322
5.49156 11.4143 35.3087
5.04753 11.1574 35.8629
5.0175 11.5773 37.4182
5.21611 11.0542 34.4739
4.78523 11.5885 36.1584
4.85322 11.4312 37.8933
5.15515 11.4876 34.7381
4.7923 11.1943 36.2312
5.09171 10.8489 34.46
4.79058 11.1502 34.2337
4.97809 10.7968 35.0962
4.67106 11.3732 36.8208
4.90134 11.3801 35.5066
5.07699 11.4333 37.8579
4.88448 10.8774 35.8768
4.82939 12.1013 37.8892
4.56964 10.802 36.5993
4.64295 11.1916 35.145
4.87227 11.2625 38.3796
5.07457 10.9028 35.1701
4.83239 11.493 36.6536
4.98388 11.0553 36.2499
4.84312 11.6196 38.8652
5.05714 10.9802 35.0092
4.96929 11.0648 35.9405
4.71382 11.1875 35.2832
4.58056 10.6961 36.1758
4.74544 11.3473 36.7672
4.86422 11.7869 39.2143
5.01243 11.2657 35.9915
4.69583 10.7659 34.5478
4.6742 10.4442 36.2986
4.99539 11.9383 38.3057
4.79512 10.9979 36.4619
4.69613 11.6076 37.7398
4.6203 10.8286 37.0601
4.97241 12.058 38.3745
4.71994 10.8729 37.0817
5.17223 12.3036 40.3225
5.25123 11.4722 37.035
4.77698 10.9444 37.9045
4.83331 11.6386 39.3145
5.30473 12.3503 39.0008
4.85628 11.6229 38.6224
4.81609 10.8316 36.4916
4.74817 10.952 36.9686
4.96572 11.4599 38.5677
4.87223 11.1866 36.7371
4.74091 11.5945 38.6597
4.77726 11.1357 36.8654
4.82172 11.5712 38.4702
4.68511 11.2861 39.4548
4.86011 11.5244 37.1546
4.72185 11.2784 38.0745
4.79412 11.5893 39.4014
5.22665 11.9688 38.5728
4.97954 11.443 37.54
4.47476 11.5182 39.4268
4.65984 10.6581 36.7401
4.87764 11.579 39.2223
4.72634 11.0325 37.0817
4.50507 10.9354 36.8267
4.30758 10.9235 37.3811
4.67729 11.5627 40.5869
5.09253 11.9012 40.4594
5.15324 12.2424 39.1952
4.59343 11.0057 36.7652
4.55482 11.0293 39.0695
4.90035 11.5411 38.4376
4.79955 11.2568 38.8935
4.67985 11.0838 38.9017
4.64483 11.4033 38.0697
4.46997 11.0643 39.6045
4.81826 11.5453 38.2943
4.73606 11.3658 38.3419
4.6895 11.5352 39.6956
5.0207 11.6749 38.6844
4.55161 11.3294 40.1454
4.82176 11.2274 37.1178
4.48276 10.6676 39.2578
4.68094 11.4053 38.4067
4.84571 11.8952 37.1315
4.37816 11.0801 39.9623
4.76472 10.6553 37.0092
4.61263 11.5414 40.6743
5.06853 11.7894 39.3858
4.61874 11.1108 38.4488
4.4749 11.3815 41.9558
4.80941 12.1543 42.6679
4.9667 11.3508 38.3535
4.83167 11.7358 39.8914
4.89646 11.4602 41.0351
4.80982 11.8449 41.7898
4.87053 12.2304 41.5056
4.76856 11.966 40.3422
4.5191 11.6105 40.8223
4.73686 12.0657 41.9721
4.81317 11.4958 41.6444
4.7149 11.584 40.5378
4.57271 11.6729 39.7258
4.70914 11.3213 39.3182
4.50174 10.8612 39.4377
4.69727 11.673 40.6695
4.55768 10.8692 39.1446
4.46944 10.6851 36.9776
4.44947 12.1725 42.3401
4.43289 11.4409 39.0992
4.44938 11.8041 42.6233
4.54173 11.5816 41.6683
4.71396 11.4543 41.6681
4.80794 12.1277 40.8272
4.32637 11.1995 39.871
4.71494 11.5887 41.3434
4.79912 12.5744 42.479
4.68734 11.5607 40.5885
4.57343 11.4629 41.2202
4.58108 10.9715 38.4466
4.5211 11.2437 42.5104
4.82023 12.5107 41.5174
4.62345 11.24 41.5913
4.89807 11.4046 40.7847
4.70161 11.1353 41.0682
4.6621 11.6203 39.1394
4.69759 11.9345 43.2673
4.94324 12.1668 41.9747
4.65624 12.1976 44.115
4.63677 11.2986 42.3584
4.86969 12.1478 41.4583
4.86149 10.8453 41.3151
4.56023 11.6743 41.3664
4.54003 11.6093 40.5207
4.66887 11.4667 42.0609
4.6338 11.4637 41.6674
4.60062 11.7202 40.9682
4.47777 11.4425 42.4301
4.56909 11.5167 41.5013
4.65038 11.8869 40.5931
4.45228 11.3899 41.4716
4.79021 11.7338 42.9153
4.85898 11.6056 42.5393
4.72943 12.1555 43.9299
4.79703 12.1304 46.7227
4.76868 12.5233 40.9731
4.25769 12.3981 44.7786
4.69789 11.8044 45.4082
5.08824 12.401 43.945
4.60169 11.8385 43.4292
4.58567 12.3631 45.2147
4.83726 12.397 44.9616
4.57072 12.1104 42.6239
4.46701 11.4962 41.9416
4.4131 11.7784 41.5197
4.30419 11.2755 41.7616
4.26895 12.2321 43.5002
4.41071 11.4987 41.8933
4.53178 11.7893 43.0796
4.63426 12.0635 42.4637
4.43897 11.4285 43.3408
4.50934 11.0017 40.5952
4.42732 11.9802 44.0546
4.76073 12.2353 45.6705
4.84027 11.8943 41.3765
4.25587 11.6958 42.2066
4.24377 11.2854 41.5403
4.52695 11.6581 41.9482
4.43754 10.9277 42.0435
4.38827 11.667 43.3618
4.58434 11.9894 43.9348
4.64843 12.1272 45.0084
4.96038 11.5291 40.9722
4.28383 11.5158 42.1245
4.38967 11.25 42.3696
4.562 11.8499 43.7396
4.27976 12.1277 43.3157
4.36443 11.5765 44.6028
4.89722 12.5632 44.6205
4.71916 11.567 43.2285
4.62167 10.9344 41.1998
4.50566 11.5413 41.8982
4.20026 11.8439 44.25
4.46791 11.8206 42.5611
4.4129 11.6331 44.3371
4.56485 11.9957 44.5388
4.68551 11.6996 45.1044
4.64459 11.8492 45.2009
4.48256 11.6378 42.1757
4.26255 10.9907 40.0833
4.30921 11.4213 42.7483
4.3395 11.2575 42.626
4.32595 11.7617 43.661
4.56376 11.9435 43.0207
4.34447 11.2135 40.9846
4.25542 11.4179 44.2697
4.46861 11.8693 43.5169
4.22593 11.4687 42.9548
4.30891 11.4376 41.8272
4.40777 11.6947 45.8141
4.57243 11.7351 42.4446
4.24982 11.5777 42.6009
3.98 11.5095 44.3121
4.33722 12.0285 44.8163
4.61339 11.6817 43.9607
4.41943 11.6922 44.7275
4.30855 11.8051 44.2395
4.67072 11.9842 43.7104
4.46304 12.1051 46.7549
4.48997 12.1671 46.9836
4.54348 11.936 45.4623
4.56757 12.0439 45.0079
4.67609 12.0611 46.162
4.80263 12.1476 43.0025
4.17847 11.2099 44.7373
4.78894 12.0324 42.9841
4.42772 11.6333 47.2214
4.76168 11.8951 43.1488
4.25609 11.7079 43.8807
4.25051 11.6099 45.2061
4.29565 11.6556 42.1466
4.34646 12.0696 46.6812
4.5649 11.7364 44.0004
4.3496 12.1357 45.4523
4.33188 11.3553 43.3757
4.65146 11.6447 44.4148
4.44783 12.2909 46.495
4.43262 12.0343 46.6855
4.4321 12.3932 42.7564
4.12677 12.146 46.3059
4.59 11.2245 43.3278
4.27428 11.4938 45.742
4.50347 11.5747 43.3068
4.25701 12.1552 47.4105
4.58725 11.438 44.0257
4.30349 12.2903 46.4112
4.61553 11.4846 43.9375
4.30763 11.3135 42.9526
4.25085 11.536 45.1872
4.41646 11.8192 46.4871
4.66963 12.2559 45.6138
4.1182 12.098 45.4511
4.06284 10.7916 43.2513
4.26215 11.3622 40.7443
4.25639 11.1346 42.8995
4.21988 11.3661 41.8343
3.85791 10.9395 43.9621
4.05009 11.4135 45.6845
4.50007 11.3995 41.6222
4.17405 11.2952 44.1104
4.31403 11.6358 44.7092
4.18614 11.4116 44.5661
4.3795 12.3868 46.1671
4.53782 11.6694 46.7454
4.40282 11.9994 44.5023
4.15542 12.0917 45.6803
4.65577 11.7892 45.2924
4.39578 11.6409 44.5606
4.39716 11.3398 46.1109
4.22471 11.6055 43.4653
4.26146 11.9953 44.6923
4.17275 11.9068 47.5152
4.5423 12.3757 46.2344
4.4433 12.0132 46.7625
4.57201 11.5665 44.2112
4.24705 11.7984 44.6132
4.13751 11.0784 47.3052
4.44384 12.0457 47.1864
4.76091 11.507 44.4089
4.36537 11.4339 44.292
4.31236 11.8659 44.7087
4.19963 11.5492 45.6176
4.26987 11.7058 45.6974
4.23296 12.4767 47.2717
4.31645 11.6423 44.2545
4.35233 11.3203 44.6925
4.44643 11.3557 42.9275
4.14156 11.2461 45.6438
4.10465 11.4598 43.2295
4.00656 11.2347 45.6685
4.6449 11.968 43.0513
4.09536 11.3613 45.9242
4.15992 11.7323 44.9838
4.01088 12.4046 48.5592
4.62384 12.2094 44.0472
3.95159 10.9311 45.3786
4.05922 11.8148 45.784
4.29889 12.3648 46.963
4.4016 11.7629 46.925
4.50317 12.3457 46.7067
4.43701 12.0604 48.968
4.26766 12.3777 46.0892
4.09947 11.6803 46.2923
4.40935 11.7295 47.8836
4.7407 12.0861 44.3591
4.23493 12.0051 45.775
4.19668 11.3911 44.7302
4.29773 11.6263 49.144
4.72128 12.1239 44.0027
4.17119 11.8378 46.7759
4.05099 11.608 46.9367
4.24358 12.4581 47.3217
4.5736 11.7999 48.0636
4.64536 12.5969 47.4622
4.33047 11.6643 44.6963
4.14032 11.3935 44.6977
4.23197 11.6946 47.2292
4.28882 11.5681 44.4487
4.01663 11.7165 46.5003
4.08949 11.9722 48.0746
4.39979 11.9358 44.8039
4.18913 11.6351 47.04
4.07265 11.7533 45.1483
4.18423 11.7107 46.6413
4.14026 12.1266 45.5627
4.04823 11.4451 47.222
4.29256 11.692 46.6002
4.38102 11.6768 46.77
4.11559 12.4078 49.2931
4.25365 11.9531 45.4095
4.16306 11.4297 44.9599
4.24926 11.2444 46.0341
4.21609 12.5054 48.6856
4.33452 11.7566 46.7562
4.13909 12.2262 47.1956
4.30562 11.5287 45.5605
4.25958 11.9069 48.6389
4.37381 12.8465 44.9077
3.99054 11.3797 47.615
4.38422 11.5152 44.0792
4.10464 11.4094 43.0973
3.96391 11.1346 49.0608
4.29636 12.4427 47.4921
4.52152 11.7693 46.3653
4.44872 12.1505 44.8589
4.05636 11.1038 46.1665
4.15839 12.1276 47.4522
4.25048 11.4359 43.0434
3.99964 11.7485 47.952
4.35436 11.6941 47.7277
4.35475 12.1045 45.9944
4.22446 11.6925 46.4845
4.1768 11.5454 48.2299
4.47401 11.9888 44.3193
4.16781 10.8042 46.5417
4.25654 11.6783 46.4887
4.197 12.1305 47.2744
4.19099 11.9036 47.5189
4.23272 11.4591 46.4911
4.16956 11.9923 47.1002
4.16095 11.9283 45.3553
4.08453 11.4541 47.4516
4.59356 12.1627 46.0077
4.29012 11.5648 45.5277
4.27513 11.619 46.7366
4.06966 11.4465 46.2273
4.13681 11.8152 45.6567
4.31942 11.3428 48.6925
4.33797 11.9987 45.1634
4.32034 11.3867 45.0458
4.12274 11.759 46.3719
4.2474 11.5089 46.3117
4.23295 11.798 45.3486
4.02725 11.792 44.4261
3.91082 11.6045 48.2061
4.33042 11.6023 47.5088
4.21734 11.9441 46.9496
4.12692 11.4756 45.1397
3.80379 11.587 48.9467
4.17893 11.8717 46.6225
4.15718 12.2377 46.8995
4.52508 11.6939 46.5299
4.05716 11.8234 45.5182
3.85963 11.7904 48.4971
4.19183 11.5858 44.8156
4.00106 11.2812 46.4662
3.9538 11.4715 42.7011
3.93133 10.88 46.2727
4.19842 11.4719 44.78
4.07194 11.5503 46.9473
4.25848 11.7128 44.8859
3.90086 11.397 47.5604
4.25405 12.267 49.5278
4.32674 12.4037 48.5543
4.25552 12.1216 50.3512
4.69145 11.7118 43.4511
3.90975 11.8225 49.0602
4.35396 12.306 49.0639
4.23252 12.4519 48.3952
4.62464 11.4271 45.3093
4.35499 11.3577 44.965
3.96282 11.6211 46.1158
4.28029 11.7738 46.6573
4.18999 11.6881 45.8622
4.35672 11.6007 49.145
4.39563 12.0683 46.0902
4.1352 11.5739 45.5696
4.0565 11.9096 46.3794
4.19315 11.5757 46.692
4.15085 11.478 44.9459
4.02528 11.3899 47.0161
4.16166 11.9029 46.8934
4.21914 11.6788 46.0895
4.3 11.9714 49.8982
4.39704 11.2717 43.0464
3.73036 11.9579 47.922
4.22074 11.8592 49.4792
4.51037 11.9579 48.113
4.14381 11.1716 47.2965
3.98829 12.1653 44.3611
3.99127 11.5343 47.9216
4.18237 11.4574 45.9656
3.9832 12.573 48.8852
4.11825 11.5051 50.2796
4.25412 11.9654 44.4591
3.95271 10.9579 46.9422
4.11159 12.294 49.0288
4.23518 11.6657 43.8269
3.86265 12.0808 48.3841
4.04912 12.1001 49.1063
4.48414 11.8524 46.2225
4.12978 11.2933 45.8524
4.15105 11.3069 46.497
4.07885 12.1402 46.9034
4.03306 12.5102 47.5821
4.37745 11.918 49.3106
4.42462 11.8443 47.9155
4.40417 12.2381 48.9754
4.24733 11.8877 48.8898
4.5339 12.7156 49.978
4.51959 12.3471 49.7235
4.47805 12.0481 47.8789
4.09524 12.7684 51.218
4.74226 12.1656 47.2473
4.6753 0 0