# pn-170911/RbIIR-61-AMC2-1280-1959.psd
# Power spectrum* (dif=0,1,2) (really just |FT|^2)
# NOTE: only the first half! (symmetric)
# weeks: 1280-1959
# 530 clock-days, 8 excluded
# PSD: 1441
233.122 0.0486552 0.0226129
13972.5 0.33146 0.0241819
42388.6 0.814637 0.0251177
18140.9 0.69096 0.0245568
18887.3 1.38337 0.0245975
5670.99 0.595888 0.026197
5224.54 0.808478 0.0235303
3007.04 0.641124 0.0250518
2462.76 0.643506 0.023615
1964.32 0.667255 0.024907
1716.95 0.700852 0.026381
1288.52 0.656061 0.0231048
1134.52 0.673424 0.0244007
1018.42 0.726428 0.0243698
850.734 0.699318 0.0240992
784.537 0.750124 0.025623
711.691 0.784458 0.0233979
652.865 0.778137 0.025356
542.179 0.752687 0.026757
513.507 0.777622 0.0253483
468.279 0.844321 0.0250249
448.798 0.852457 0.029478
417.261 0.901058 0.0272805
388.395 0.897597 0.0274143
361.427 0.892791 0.0278178
358.504 0.943969 0.0269522
304.17 0.916098 0.028093
302.732 0.953757 0.0269443
294.048 1.02431 0.0289603
263.253 0.975172 0.0305103
283.815 1.16333 0.0284223
251.068 1.03893 0.026954
248.959 1.12387 0.0288002
228.613 1.1259 0.0275389
247.405 1.27862 0.0308159
221.474 1.19621 0.0320214
227.755 1.26728 0.0312934
204.126 1.25527 0.0320961
228.778 1.49366 0.0376378
203.074 1.33382 0.0312087
189.281 1.34567 0.0355468
212.087 1.5448 0.0398378
196.982 1.53032 0.0360294
192.45 1.5913 0.0383365
192.939 1.62056 0.0406361
178.173 1.58148 0.0410295
168.509 1.59655 0.0414229
176.627 1.72522 0.0429631
181.898 1.92082 0.0506699
163.461 1.73913 0.0446685
172.693 1.86942 0.0458305
160.095 1.86687 0.0457953
158.724 1.98425 0.0508956
163.202 2.07909 0.0512636
159.347 2.12304 0.0556777
164.49 2.22827 0.0550375
168.273 2.41006 0.0586921
144.117 2.16413 0.0613431
155.666 2.38551 0.0638193
158.859 2.51071 0.06378
149.506 2.46599 0.0623741
139.426 2.36062 0.0668454
139.269 2.48361 0.0699391
142.33 2.62129 0.0751793
145.076 2.75745 0.0775481
143.883 2.78426 0.081324
134.005 2.67765 0.0854556
132.454 2.73321 0.0818729
137.069 2.87199 0.0898846
139.768 3.06017 0.0931106
144.096 3.2881 0.105588
138.826 3.26556 0.107249
120.829 2.97226 0.096496
130.367 3.20148 0.106395
134.414 3.36937 0.113161
124.639 3.24534 0.108416
140.093 3.6987 0.127122
137.414 3.80514 0.127893
125.126 3.47153 0.126671
127.697 3.7156 0.132163
121.143 3.71001 0.137922
129.342 3.92643 0.14161
126.417 3.90834 0.147127
130.7 4.07325 0.159198
127.89 4.1057 0.158088
130.375 4.26662 0.168593
124.638 4.2277 0.170355
123.43 4.35613 0.182512
119.161 4.22733 0.175523
125.251 4.60482 0.196884
131.828 4.84053 0.206364
132.025 5.05956 0.222127
120.093 4.69512 0.21622
120.838 4.76952 0.218008
121.647 4.96172 0.229073
116.186 4.81304 0.235899
123.51 5.20089 0.248736
123.848 5.37144 0.263985
110.536 5.03241 0.253048
116.376 5.24068 0.270151
117.825 5.40067 0.290736
115.133 5.42761 0.279802
107.242 5.23147 0.290597
118.736 5.92641 0.316866
111.558 5.56458 0.30711
115.53 5.90197 0.341681
114.385 5.99159 0.342623
105.926 5.6087 0.325386
108.325 5.89474 0.353704
105.323 5.81609 0.367782
118.95 6.55282 0.405561
104.645 5.97141 0.365191
104.867 6.11142 0.382392
103.369 6.17911 0.401055
120.492 7.26295 0.466163
108.876 6.71962 0.458145
105.158 6.61485 0.459625
102.099 6.53972 0.45095
100.168 6.55244 0.454499
101.398 6.67497 0.461951
107.627 7.17179 0.505424
107.757 7.45221 0.553653
100.024 7.09277 0.530766
103.352 7.2012 0.539328
106.026 7.68574 0.604367
97.0181 7.10728 0.550285
98.8818 7.27523 0.586573
97.1767 7.27009 0.567375
99.3247 7.4935 0.600441
102.532 7.97157 0.644357
104.304 8.25064 0.685322
97.9393 7.8259 0.660855
97.6963 8.09597 0.701813
90.6856 7.44203 0.649642
98.2094 8.15727 0.71406
93.3567 8.15532 0.7287
107.556 9.41309 0.823796
95.9235 8.33514 0.769148
97.9001 8.82071 0.812832
98.3549 8.80648 0.825959
93.7622 8.55178 0.815912
101.56 9.23666 0.89728
105.873 9.93049 0.972987
91.9111 8.83578 0.880601
93.5726 8.96903 0.906565
98.9087 9.9966 1.0204
92.767 9.26887 0.947919
97.1525 9.66862 1.00932
91.409 9.32796 0.993536
92.7789 9.7029 1.05466
91.8823 9.73931 1.05879
97.993 10.2881 1.11651
88.0881 9.39024 1.04261
92.1843 9.91645 1.11342
91.3582 10.2076 1.17157
92.5119 10.4952 1.21713
89.4742 10.0192 1.1597
86.1217 9.86456 1.15982
92.1352 10.5577 1.24236
89.8196 10.7449 1.29598
87.7586 10.5822 1.30592
81.6623 9.82539 1.20742
84.5249 10.3075 1.27442
92.2286 11.3648 1.43135
90.3484 11.1046 1.39269
90.1533 11.4349 1.48407
81.9188 10.4479 1.36757
87.3363 11.4148 1.53021
83.9742 11.0823 1.48419
85.4632 11.3005 1.52909
81.9204 10.9807 1.50965
82.5747 11.3071 1.56338
83.9631 11.6943 1.669
84.5974 11.8986 1.70188
80.5726 11.3337 1.64049
79.3694 11.1677 1.62805
77.9411 11.1032 1.6094
77.7432 11.2726 1.69463
75.8915 11.3065 1.70798
73.6559 10.959 1.64784
74.3884 11.1965 1.69825
75.0897 11.5982 1.79862
79.1801 12.1326 1.85971
78.3508 12.3579 1.9705
74.1424 11.7144 1.89236
77.8203 12.5345 2.05926
74.3774 11.7672 1.87789
71.2499 11.5356 1.89983
75.9949 12.6406 2.11729
77.4898 12.7516 2.16441
71.3541 12.0412 2.06868
80.784 13.9404 2.43011
77.3561 13.163 2.27232
73.9405 12.6135 2.19383
66.7395 11.7625 2.12425
70.4544 12.3751 2.20812
73.1951 13.1258 2.38527
73.2124 13.0028 2.38035
70.2528 12.8573 2.41866
74.8004 13.7414 2.57934
69.7353 12.8155 2.43222
69.9411 12.9669 2.44793
71.3642 13.685 2.65152
68.8389 13.2961 2.59635
69.0909 13.0367 2.4868
74.5066 14.6116 2.8924
75.0686 14.7713 2.96588
69.9715 13.9481 2.82106
69.7775 14.0111 2.82693
70.306 14.5237 3.0221
66.8731 13.6101 2.83878
72.6345 14.778 3.08038
68.7423 14.2795 3.00779
68.8317 14.3411 3.0487
61.9654 13.346 2.91031
65.3771 14.116 3.10391
65.7148 14.3257 3.15293
67.7788 14.8368 3.23467
71.7794 15.7673 3.46328
61.9193 13.9075 3.1511
64.8095 14.5457 3.29223
66.4474 15.1324 3.48032
66.8065 14.9893 3.44017
61.2525 14.3495 3.40545
69.5719 16.0671 3.71464
64.6364 15.3663 3.70082
64.3725 15.0356 3.58844
68.3492 16.2143 3.85274
65.3935 15.7867 3.89205
66.1905 15.9284 3.88293
60.3724 14.8422 3.62029
59.8873 14.9138 3.74447
62.8816 15.5956 3.88966
60.1441 15.1475 3.8714
63.0898 15.8967 4.0738
59.8491 15.208 3.9694
60.0908 15.4485 4.04925
59.5343 15.5055 4.07733
56.5501 14.4287 3.77846
60.5775 15.9464 4.19539
59.455 15.5443 4.13869
59.0796 16 4.42764
60.8429 16.2311 4.40393
52.9142 14.5861 4.08058
61.2173 16.7775 4.61164
60.9261 17.1368 4.88484
59.2777 16.3179 4.53933
56.0029 15.803 4.49107
64.6042 18.0703 5.06559
57.7127 16.713 4.89379
56.6164 16.6057 4.90367
53.471 15.5359 4.57802
57.9036 16.6798 4.84606
59.7272 18.0467 5.4813
54.4526 16.46 5.05544
60.752 18.0386 5.40672
56.323 16.5344 4.92584
55.2028 16.7578 5.11072
58.4855 18.2889 5.7566
57.5599 17.5331 5.42957
51.3215 15.7094 4.93249
57.3231 17.7722 5.52102
54.1531 17.173 5.42253
50.8872 16.0394 5.11771
54.5332 17.5669 5.69239
50.1466 16.3435 5.30236
55.3911 18.2478 5.964
53.8606 17.8767 5.8868
48.5385 16.083 5.36649
53.7172 17.8596 6.03036
47.7646 15.8738 5.38388
52.1591 17.5057 5.91975
47.5081 16.4445 5.73134
50.0476 17.1269 5.87979
47.5969 16.2662 5.5689
48.3567 16.8339 5.81444
48.8141 17.1721 6.09106
51.9393 18.1835 6.42747
46.7143 16.2905 5.74377
51.9528 18.991 6.91179
47.8293 17.2028 6.30069
50.1506 18.0713 6.55154
48.3433 17.6952 6.54054
52.9366 19.7354 7.29202
45.6465 16.9874 6.38358
47.4761 17.6424 6.65596
46.8429 17.2269 6.51388
53.4536 19.9101 7.49506
48.5825 18.6312 7.15329
46.8597 17.9574 7.00923
48.4554 18.5422 7.20948
45.978 17.6743 6.85438
43.7826 16.8448 6.60824
46.6604 18.1974 7.27206
47.0884 18.6589 7.47465
48.2195 19.319 7.65315
43.5407 17.3091 6.98451
47.5003 19.0684 7.66633
43.8202 18.0291 7.4716
43.782 17.7757 7.31133
45.54 18.2766 7.45887
47.6513 19.7611 8.31366
43.7269 17.9797 7.33801
45.4587 19.4609 8.26008
43.4144 18.1566 7.66376
42.1182 18.2217 7.90358
45.7056 19.3069 8.24273
46.5661 20.2255 8.78296
42.5968 18.5617 8.20651
45.6485 19.3828 8.34934
44.2973 19.5841 8.7319
41.8036 18.0915 7.8795
40.9326 18.7775 8.6895
43.1414 19.418 8.86855
43.6816 19.3471 8.59526
40.3227 18.1427 8.30784
38.123 17.1179 7.93451
42.3002 19.0557 8.70018
41.4001 18.6993 8.59131
40.4523 18.41 8.53498
43.2454 19.9507 9.12642
43.9607 20.6539 9.64151
40.4322 19.2132 9.20034
40.3757 18.8681 8.96303
39.7624 18.9212 9.00748
37.9341 18.3382 8.86695
38.2172 18.2498 8.79167
39.5668 19.2044 9.29782
40.0543 19.7226 9.71315
36.8054 18.3478 9.18755
36.2646 18.0028 9.05153
39.4016 19.1465 9.26831
34.3737 17.5518 9.1466
41.0228 20.5203 10.3002
37.0676 18.3315 9.23858
36.4307 18.7787 9.75402
39.8293 20.3876 10.4576
37.77 19.081 9.68801
37.96 19.7846 10.3401
37.1984 19.8551 10.6179
36.3638 18.9005 9.96312
35.9255 18.8082 9.91772
34.3638 18.2261 9.69403
36.4521 19.3536 10.3198
37.4332 19.9693 10.6854
35.6049 19.2232 10.5584
37.1588 19.6961 10.6017
34.0428 18.3563 10.0107
35.3382 19.3007 10.7547
36.4034 19.9684 11.0924
33.7198 18.4971 10.4741
40.5583 22.3688 12.1617
37.6675 21.0837 11.837
36.4344 20.284 11.3646
36.2422 20.0552 11.1132
35.2217 20.2486 11.5872
32.4597 18.5925 10.8171
35.7394 21.0089 12.3991
37.568 20.9215 11.7475
33.3417 19.6881 11.7901
33.4481 19.1946 11.0904
33.879 19.7962 11.7089
35.7005 21.2302 12.5704
33.753 19.715 11.7217
36.3444 22.0464 13.4192
34.8302 20.2857 11.9608
32.0921 19.4316 11.9233
33.1535 19.8185 11.7728
31.4359 19.329 11.8931
34.3591 20.888 12.6869
31.0513 18.889 11.6324
34.0371 21.0291 12.9756
33.7686 21.0265 13.0454
29.0533 18.2499 11.7916
32.8327 20.6568 13.2355
33.1629 20.4482 12.7731
33.0451 21.2222 13.6941
31.0886 19.4836 12.3069
29.6043 19.1046 12.5016
31.7905 19.9015 12.6587
30.2862 19.8545 13.2128
29.9879 18.7763 11.9744
28.1094 18.1215 11.83
32.3396 21.5858 14.4671
31.2374 20.1568 13.3172
32.2192 20.8688 13.5022
30.4373 20.6609 13.8454
29.286 19.6323 13.4389
30.6986 20.2214 13.5145
30.7252 20.7432 14.1219
30.8763 20.7372 14.0051
31.6194 21.6347 14.8838
29.9823 20.2426 13.9016
30.6264 21.0535 14.5854
27.9888 19.0929 13.2263
28.8229 20.0925 14.0754
30.256 21.275 14.9011
27.7083 20.0292 14.7085
32.3103 22.3319 15.6446
26.4663 18.2563 12.9126
28.3679 20.0634 14.2616
28.44 20.6939 15.0295
27.0405 19.5434 14.5626
32.0902 22.6303 15.9165
29.0254 21.0889 15.178
29.2067 21.5599 15.8269
27.6538 20.7354 15.8856
28.7363 20.1874 14.5481
27.9115 20.1146 14.6699
27.4382 20.4125 15.3155
28.0934 20.2678 14.848
26.6758 19.8194 14.8864
25.7313 19.5961 14.9085
25.9223 19.6545 14.9963
25.3682 18.9134 14.3944
26.371 20.3491 15.4215
24.504 18.819 14.7824
25.9137 19.7196 15.3915
28.6864 21.8466 16.7822
25.8685 19.3573 14.6043
26.2736 21.5527 17.5314
27.4655 21.6075 17.3738
27.6552 20.9604 16.1962
25.1407 19.4214 15.3961
25.7469 20.0295 15.9076
26.4476 21.0099 16.5178
26.4924 21.3318 17.2105
25.0144 19.8651 15.8529
24.1628 19.5775 15.9798
24.1471 19.4858 15.8069
24.0359 19.7956 16.5492
25.2335 20.1423 16.1959
24.0677 19.8708 16.4894
26.1348 21.4576 17.5504
23.7985 19.7838 16.5186
22.6649 19.1455 16.5498
25.3011 20.1787 16.2637
24.3673 20.9779 17.9483
24.129 20.0818 17.0164
25.125 20.7039 16.9996
23.2058 19.9739 17.0811
23.4411 19.7035 16.5545
22.1897 19.4185 16.9581
23.3853 20.2757 17.4277
23.5252 20.5816 18.2091
23.4199 20.5833 18.0469
24.374 21.0925 18.4843
22.4795 19.6504 17.474
24.6392 22.2888 20.0889
25.4898 22.2033 19.5284
22.8344 20.5342 18.6968
24.115 20.8823 18.3846
23.5518 20.5915 17.9997
22.3622 20.8179 19.6155
22.0307 19.001 17.0941
21.8342 19.7526 18.1713
22.4474 19.9144 18.2091
23.3855 20.4556 18.1946
24.1613 21.5359 18.9928
21.5368 20.0689 18.7458
21.128 19.7367 18.8553
22.5415 20.0828 17.8713
21.0734 19.823 18.7574
21.2666 19.772 18.3297
20.8509 19.7477 18.8547
21.3244 19.845 18.3651
21.3084 20.5818 19.8138
20.7121 19.8685 19.4302
21.7635 19.9932 18.7129
21.6098 20.9463 20.0923
21.2702 20.2562 19.1953
19.7769 19.4657 19.2673
20.2001 18.8134 18.2428
20.3461 19.759 19.4105
20.8968 19.2967 18.0538
19.3709 18.9756 18.7778
19.4925 18.997 18.545
20.6367 20.6699 20.5789
21.0428 20.4824 20.1639
19.5991 19.5391 19.5623
19.2898 19.3912 19.8367
21.7002 21.5296 21.1904
20.0204 19.6237 19.3378
18.4277 18.9423 19.5437
19.6237 20.2182 21.1908
20.8079 20.4625 20.403
19.2528 19.3476 19.5001
18.9467 19.651 20.5177
19.5181 20.1202 21.0692
19.8411 20.1447 20.8713
19.7148 19.6906 19.7851
18.5151 19.4695 20.2124
18.9459 20.4468 21.825
19.076 19.6074 20.6093
18.7117 19.7774 20.9326
17.4888 17.8787 19.1535
20.4919 21.627 22.6318
18.9763 20.0067 21.4857
19.1674 20.1498 21.3569
18.3911 19.1498 20.2261
18.3934 19.863 21.0802
18.1313 19.7627 21.3369
17.0715 18.6195 20.7064
18.4813 19.7398 21.0405
16.9559 18.8434 21.1006
18.8059 20.9652 23.5241
18.0616 18.823 20.4132
17.1166 18.6695 20.7734
18.7237 20.4655 22.7124
18.7783 19.9426 20.944
16.5658 18.6416 20.8117
17.4379 19.6648 22.289
17.422 19.4321 21.658
17.3586 19.5151 22.4019
18.6905 21.0213 23.6829
17.7421 20.0538 22.3673
16.6403 18.697 21.057
15.9917 17.8972 20.6112
16.8273 19.3303 22.088
16.5764 19.0682 21.9834
16.3115 18.9838 22.334
17.6152 19.9278 22.4483
16.2637 18.9365 22.1575
16.7955 20.2564 23.8567
15.5301 18.6683 23.1797
17.5403 19.3973 22.1685
16.6954 19.0819 21.862
16.106 19.3707 23.1613
16.6547 19.5398 23.1247
15.9177 19.3673 23.7558
16.2298 18.5505 22.2161
15.6661 18.0251 21.3771
17.926 21.7999 25.4976
15.6775 18.668 22.4716
15.9516 19.4415 23.9734
15.9824 18.8326 22.6116
17.3858 21.924 26.949
15.8666 18.4482 22.1796
16.7311 20.8163 25.63
15.2428 18.9782 24.0531
15.7882 19.2388 24.3083
17.1826 21.0021 25.3539
15.3953 18.5718 23.1312
15.1983 18.9127 23.7092
16.9204 20.8896 25.3317
15.695 19.5909 24.3316
16.2387 20.9095 26.7008
17.0952 21.5946 26.9807
15.279 18.6064 23.4996
14.5642 18.491 23.3407
15.4423 20.0369 25.8302
14.3051 17.8492 22.7448
14.1021 18.252 23.9657
13.9595 17.4006 22.3099
14.4258 18.7868 24.2466
14.4353 18.736 24.5123
14.308 18.3632 23.9238
13.1804 16.8176 22.6898
16.3802 20.9557 26.6023
14.4185 18.9265 25.2302
15.9995 20.5878 26.202
14.42 19.0539 25.6734
14.8718 19.1024 25.0115
14.4577 18.7099 23.7939
13.8516 19.7025 27.6947
14.5272 18.4377 24.3568
14.2279 19.4315 26.008
13.5096 18.5884 25.9996
13.8818 17.969 23.9184
13.8794 18.5873 25.3656
14.0186 18.3855 24.522
15.1688 20.9616 28.4174
14.2114 19.1077 25.8479
13.66 18.552 25.4459
13.9308 19.007 26.3178
13.7666 19.1234 26.76
13.7777 18.2712 24.8456
14.7191 20.0103 27.0176
14.3317 20.1457 27.8563
13.9564 19.3322 26.5249
13.5768 19.2166 27.1387
13.8862 20.0266 28.9232
13.322 18.2828 25.945
12.6686 17.6344 25.5806
13.3054 18.2623 25.7688
13.5505 18.754 26.3686
14.2777 19.9105 27.2783
13.6819 19.6846 27.9533
12.589 17.8262 26.0049
13.8641 20.0796 28.775
12.6852 18.065 26.6541
12.32 16.8173 23.8912
13.4351 20.058 28.8271
11.7743 16.0123 22.3815
11.1621 16.8276 24.7784
11.8546 17.8548 26.9975
11.9646 17.092 25.3766
12.3659 17.8494 25.866
12.4379 18.5037 27.1217
11.4085 16.8726 26.0887
12.6331 17.9158 25.5066
12.1551 18.7667 28.6931
12.9319 18.607 27.3092
12.2224 18.1211 27.329
12.3264 18.8541 29.1781
12.3795 17.7329 26.9796
13.0598 19.2391 28.0398
13.0483 19.7196 28.7672
12.3238 19.7875 30.8108
11.9208 18.0055 28.7874
13.5288 19.7635 29.1685
12.9154 20.0285 31.3185
13.943 20.7262 31.0951
12.9296 20.8051 33.2627
13.072 19.3596 30.4598
13.2205 18.6019 26.6632
11.6634 17.7269 26.5726
11.6516 19.0402 30.6103
12.4337 19.4752 31.2977
13.0559 19.5862 30.473
12.7854 19.413 30.4878
13.0211 20.3292 31.7326
13.4055 20.6503 31.7804
12.6748 19.8574 31.3788
12.8792 19.992 31.092
12.572 20.249 31.6471
11.8308 19.1992 31.7389
12.9112 20.5444 32.2038
11.3615 17.8483 28.3041
11.6117 19.1657 31.6526
11.7359 18.679 31.3077
12.9819 20.2642 32.5437
13.2153 20.9167 32.3091
11.1069 18.0416 30.4665
11.9983 18.5689 28.6249
11.6324 20.2528 33.5294
12.1253 19.6089 32.1722
12.1309 19.2194 30.5215
11.333 19.5043 33.2788
11.386 17.9051 28.9904
10.6568 17.7326 30.3032
11.4319 18.8582 31.2744
11.3536 19.0718 33.0655
11.9935 19.1121 30.4291
10.7319 18.0371 30.5753
10.9654 17.6226 28.6589
11.1061 18.8232 31.2668
11.1676 19.1774 32.785
11.2941 18.8896 32.7328
12.8603 21.6963 36.0422
11.6308 19.4804 33.0474
10.7922 17.4536 29.7582
11.2821 19.3682 32.4666
10.4428 17.3336 29.598
10.276 17.0552 29.2617
11.518 20.0266 33.2423
10.9306 19.3176 33.9436
11.5321 19.8096 33.818
11.358 19.9417 34.5911
10.8592 18.7291 32.6645
10.7555 18.7789 33.994
11.9321 20.2288 34.7422
11.41 19.5668 33.8993
11.449 19.927 35.0457
11.2491 19.9856 36.6823
12.4702 20.9109 34.2583
11.2574 21.2852 38.5839
11.0374 18.9974 33.9516
10.0426 17.4181 31.4789
10.6405 19.0988 33.8596
10.2316 17.8161 32.4257
10.6476 18.4827 32.9307
10.6768 18.3547 31.563
9.86235 17.6831 31.0098
9.66827 18.3025 34.8876
10.9284 19.0721 33.725
9.76475 17.5914 32.7815
10.2068 17.9219 32.2633
10.0363 18.1925 33.5188
11.2552 20.2592 36.217
10.5777 19.1838 34.2099
9.763 17.8517 33.5045
10.7824 19.8153 36.5162
10.7193 18.6886 32.5807
9.53986 17.884 33.0839
9.62292 18.1046 34.3847
9.68843 17.4721 32.4543
9.841 18.6862 35.9595
10.4054 18.3463 32.8666
9.9609 18.8378 35.5561
10.4048 19.5732 36.7391
9.49411 16.6729 30.6877
9.23682 17.1652 32.4789
9.74297 18.2643 34.1069
9.63853 17.9313 32.8535
9.22656 17.9057 34.6073
9.79608 18.7409 35.9279
9.80916 18.1801 34.6397
9.56404 17.3568 31.9096
9.14986 18.1682 36.5978
10.1004 18.2058 34.6093
10.0649 18.2751 32.8856
9.29879 18.2177 35.4265
9.77897 19.1584 36.803
9.42931 17.6213 34.5266
10.4338 20.5367 38.451
9.24332 17.5995 34.7287
9.0481 17.2003 33.6904
9.16351 17.6104 34.3989
9.56761 18.609 35.5004
8.50782 15.9604 31.0879
9.01553 19.3302 40.888
9.99267 18.4482 36.1983
10.2492 19.6782 37.4526
9.72136 19.7789 39.3896
9.70496 18.5273 36.1351
8.9744 16.9942 33.6549
8.70747 17.2066 33.9609
8.38531 15.7657 31.7908
9.38085 19.0793 37.2817
9.11661 17.8188 34.431
8.38443 17.186 35.5556
8.57259 16.7395 34.4166
8.97207 17.2536 34.9497
9.97705 20.8493 40.518
9.0035 18.3556 38.209
9.38102 18.0515 35.6442
9.00655 18.2817 36.5457
8.70739 17.6003 35.5068
8.49142 17.5265 36.8171
8.68228 16.7809 33.1476
8.17832 17.6471 38.0028
9.09968 17.8808 36.3462
8.54446 16.9238 33.7892
8.28874 17.3957 36.7616
8.58216 17.7932 37.8527
8.73867 16.8503 34.2969
8.71969 18.3655 38.0922
8.82982 18.2153 37.5406
8.27104 16.6111 35.2576
8.81948 17.5282 33.598
7.62853 16.4143 34.2567
7.40218 15.404 33.3811
8.43407 18.0162 38.0705
8.82298 18.1302 35.7836
7.30988 15.4247 34.2852
8.34459 17.7613 37.2262
8.1442 17.3161 37.4065
8.36725 17.5061 36.841
8.73311 18.6832 39.5607
8.43817 17.3622 35.0379
7.27411 16.3687 36.0416
6.78363 14.0071 32.6953
7.77669 15.7766 33.9448
8.06276 17.0314 37.1816
8.55706 18.4814 40.2442
8.56307 17.1442 35.7906
8.19814 18.0997 39.4112
8.5642 17.962 37.143
7.62192 16.019 33.8085
7.50965 17.2277 38.8399
8.14489 17.5796 38.1613
7.54237 15.8803 35.8194
8.03911 16.9676 35.6862
7.50856 16.7197 37.2296
7.92286 17.4429 38.8433
8.03169 17.6122 39.8384
8.31854 17.555 37.6123
7.78851 16.9721 37.0137
7.58036 16.0927 35.3171
7.68142 17.553 38.7264
7.47258 16.3931 37.7043
7.78599 16.6846 36.7872
7.82055 17.2069 37.9373
7.38906 15.7329 33.1076
6.98635 16.7426 38.7496
7.96086 17.6511 38.0371
7.02397 16.1087 37.6482
7.51946 16.8804 37.9153
7.15212 15.8213 36.0051
6.77135 15.0702 36.0596
7.68738 16.8746 36.9948
6.98808 15.4457 35.2655
7.24275 16.086 36.1752
7.07949 15.7455 35.4933
7.353 17.2173 38.3171
7.07399 16.4553 38.5606
7.17482 15.6152 35.5935
7.13504 16.1821 36.6978
7.06102 16.3292 36.8041
6.76697 16.1422 38.6886
7.04008 15.1421 34.1576
6.88861 16.4484 38.0745
6.87892 15.6858 35.9926
6.7625 16.1148 38.9809
7.28715 16.0803 36.4591
6.93279 16.6132 39.0346
7.20275 17.0912 42.0038
7.84725 16.8398 36.1482
6.64749 16.221 39.4874
6.91017 15.0015 34.4458
6.51636 15.5129 36.4638
6.74583 15.9042 36.7056
6.52657 15.3472 36.3351
6.50438 16.016 39.874
6.90287 15.4754 36.5947
6.79228 15.5789 36.9934
6.69027 15.6953 36.7216
6.53788 15.8881 39.0468
6.94867 16.2085 37.4328
6.16911 14.5488 35.4208
6.32914 15.399 38.9342
7.12357 16.0883 36.0774
6.35271 15.7626 39.0736
6.68987 15.715 38.2432
6.8663 16.5655 39.3739
6.78728 16.4649 40.9588
7.33261 17.5696 42.8554
7.04918 16.1925 37.9972
6.25613 15.313 39.9148
7.48824 18.2249 44.6552
7.74696 18.7033 44.8879
7.02148 16.4907 42.7734
7.96788 18.9332 44.9646
7.61478 18.243 43.8684
7.36773 18.0096 44.8364
8.01785 19.4432 46.1146
7.47965 18.2233 44.1799
7.33473 18.5048 46.7955
7.55477 18.5715 46.4213
7.44241 17.9789 44.2983
7.08696 16.9067 41.4624
7.10488 18.4974 47.4828
7.52035 18.1276 46.1133
7.56916 18.5522 45.5052
7.26253 17.9223 45.8362
7.57922 18.3696 45.0174
7.24034 17.8916 45.4587
7.40361 18.568 47.9544
8.04971 19.8187 48.2388
7.35888 17.9418 45.937
7.41192 17.9384 44.5309
7.11883 17.6835 44.0438
6.94308 17.4969 44.3439
6.92816 16.7629 42.637
7.63957 20.0512 49.1038
7.18681 18.016 45.8482
7.12691 18.5197 48.0032
7.15489 17.4685 43.9079
6.93876 18.2719 48.2213
7.36189 18.4851 46.9922
7.03496 17.3355 44.115
6.93369 17.996 46.9117
7.07648 17.8207 46.9807
7.39535 17.9582 44.018
6.86653 18.414 46.2563
6.52235 17.0748 47.2033
7.32159 18.0855 44.5175
6.44864 16.7251 44.5107
6.67172 17.2037 45.7716
7.06757 18.0191 46.4222
6.78768 17.0006 44.6217
7.04256 18.2011 46.2374
7.08753 18.7998 49.4915
7.09772 17.7693 46.0335
7.01682 18.8306 48.5499
6.9835 18.4331 47.8392
6.90325 18.8094 50.3379
7.11338 17.5788 42.4152
5.81404 15.2462 39.1586
5.16862 13.4008 37.1082
5.82075 15.3619 39.3808
5.55033 15.2922 41.4689
5.54293 14.1926 38.0963
5.29655 13.6822 37.8311
5.5524 13.9087 35.7988
5.41069 14.2739 36.7802
5.13272 14.1357 38.6301
5.30575 13.4424 34.9421
5.04993 13.892 38.027
5.325 14.1577 38.3909
5.13585 13.0499 37.3127
5.85598 16.4767 42.9605
5.49097 13.8219 37.4407
5.41331 14.2483 38.1077
5.63436 15.6918 41.1948
5.35628 14.554 40.3627
5.06421 12.5549 36.0067
5.60944 15.2527 39.4862
5.27089 14.8689 41.1791
5.22946 13.0202 35.3599
5.15098 14.331 38.9746
5.13341 13.7142 38.1662
5.23478 14.1542 39.387
5.26558 14.1317 38.8823
5.16162 13.2712 36.5269
5.32869 14.1693 36.6134
4.79636 13.3712 37.0333
4.95664 13.2906 37.5648
5.26412 14.5291 38.9083
4.89946 13.1407 37.9615
5.39972 15.9434 45.1881
5.77171 14.6808 37.7143
4.85476 14.1028 41.2942
5.36684 14.4241 40.956
5.72748 16.3559 44.4631
5.31518 13.8709 38.8627
5.20369 14.3483 38.8149
4.86309 12.7876 35.8229
4.96715 14.1633 38.4689
4.89134 14.3685 41.9407
5.02892 12.8944 36.5144
4.8543 13.1721 35.8052
4.70807 13.5925 38.1844
4.62358 12.3824 35.7924
4.81888 13.5219 37.3157
4.80402 13.6322 37.3387
4.40962 12.5237 38.3632
4.97118 13.6574 37.5193
4.77392 13.5874 37.4954
4.62033 13.4065 39.7098
5.1299 14.8156 41.3021
4.96011 13.9482 39.9762
4.75032 13.1546 39.1928
4.9316 13.085 35.9615
4.53145 12.6916 34.8169
4.53278 13.6011 39.3324
4.85057 13.7144 39.0499
4.58497 12.7305 36.4
4.54211 13.5879 39.8712
4.78475 12.891 35.798
4.3992 13.1668 38.2245
4.51801 13.1522 39.7796
4.71436 13.637 40.5065
4.90734 13.6687 39.8722
4.78523 13.6512 41.6705
5.32882 15.5389 42.0335
4.54283 12.0867 36.3981
4.84881 14.7006 43.3464
4.72451 12.5171 37.307
4.71242 13.1113 36.8048
4.69805 14.4308 40.94
4.55432 12.733 36.9553
4.27774 12.6075 38.9683
4.81564 13.7398 39.0926
4.50832 13.4348 40.6622
4.72427 13.5049 39.1849
4.47593 13.0682 39.2193
4.57799 13.6147 43.1143
5.28757 15.0499 44.0088
5.24357 15.1709 42.4709
4.94315 15.0386 44.312
5.02698 14.567 39.1178
4.2532 13.3453 41.7312
4.66597 13.5513 39.62
4.37407 12.8378 40.2092
4.53275 12.8101 39.8977
4.73552 13.4901 39.1365
4.60926 13.3131 37.0665
4.16363 12.433 37.2829
4.42064 13.9607 40.496
4.37359 13.397 39.7247
4.24628 12.664 39.184
4.37438 12.8118 37.9825
4.17321 12.6448 38.9572
4.2536 12.3744 37.5806
4.22738 12.5116 37.9262
4.26494 12.4737 35.6683
3.98076 13.1424 41.5318
4.34964 12.4181 37.9824
4.40384 13.1204 37.4863
4.06027 13.2577 43.1407
4.54099 13.0691 40.2578
4.43955 13.1715 39.8315
4.32024 12.904 40.9354
4.85035 15.2156 43.2721
4.26815 12.6323 40.814
4.46516 13.4281 40.5342
4.21293 12.4281 38.3568
4.16216 12.3193 38.5611
4.30102 13.2711 40.1872
4.2283 12.7103 38.5388
4.12573 12.7569 39.7393
4.23749 12.8385 41.1557
4.44814 13.5202 41.1187
4.2443 12.6769 39.4433
4.28898 13.3307 39.1371
3.91015 11.7084 38.0007
4.14874 12.1566 36.9795
3.90312 11.6598 36.2632
3.96755 12.7863 39.0939
4.20655 13.7107 43.1557
4.32367 12.8165 40.6229
4.31842 12.7838 39.0742
4.03467 12.3277 40.7391
4.47447 14.2497 45.7607
4.66255 13.6028 40.8116
4.1536 12.4553 37.8208
3.78148 11.8929 39.7346
4.28645 13.582 42.128
4.17268 12.2187 37.2303
4.03444 13.3139 41.9073
4.00777 11.7625 38.0606
3.99724 12.5157 40.7711
4.32667 13.0905 39.1869
4.05915 13.2207 40.9114
4.06015 12.5264 39.985
4.25928 13.3239 40.7403
4.05156 12.8473 39.8104
3.88137 12.5625 41.5021
4.11972 11.9694 36.7526
3.84593 12.9124 40.6353
3.86635 12.295 41.526
4.1008 12.5718 40.2677
4.0247 11.9271 37.0374
3.67113 11.5657 37.8642
3.84092 12.0037 38.7291
3.86416 12.3385 39.0142
3.8307 12.1491 40.0108
4.02489 13.0178 40.7746
3.7512 11.2432 37.8921
3.91908 12.3874 38.9584
3.86777 11.9163 38.0774
3.86962 12.7279 40.2689
3.97843 12.8397 39.8117
3.64691 11.6045 39.6388
3.90719 12.8059 42.1185
4.1698 13.3904 41.0394
3.61343 10.9408 37.143
3.86252 12.741 42.5414
4.20525 13.0597 41.4057
4.10672 13.5731 42.8321
3.93777 12.5423 39.1606
3.69137 12.1848 39.7738
3.68978 12.1383 42.5468
4.04336 12.8636 42.4146
3.98796 12.2947 39.0956
3.71937 11.9345 37.7324
3.64665 12.3962 39.6673
3.59418 12.0606 40.7545
3.6913 11.6699 38.7335
3.62386 11.7242 38.3875
3.63699 12.2721 39.9252
3.5085 10.8225 37.398
3.72505 12.3382 40.592
3.72748 11.9153 38.9057
3.58794 11.5159 39.8971
3.82446 11.9973 37.5933
3.49354 11.9518 40.7084
3.66682 11.1004 38.7059
3.84687 12.978 39.5498
3.45285 11.5758 41.0435
3.61368 10.9799 38.7972
3.70425 11.6122 39.1259
3.85766 12.3337 38.091
3.54186 12.495 41.9211
3.82924 12.2777 40.1669
3.6312 12.624 41.317
3.50675 11.009 37.983
3.50565 11.4788 38.7741
3.53816 11.8142 42.3171
3.97579 12.4939 38.309
3.40629 11.4304 38.399
3.40122 10.9731 37.4607
3.52899 11.5652 37.7104
3.46963 12.0188 39.4572
3.57236 12.8547 43.338
3.78182 12.7301 43.3881
3.67008 11.2945 37.279
3.28206 10.8768 38.3932
3.55627 12.4405 41.7128
3.59746 11.0201 36.4484
3.3175 11.1271 38.3047
3.52515 12.3685 41.5176
3.64149 11.92 40.6937
3.50363 11.0773 37.6553
3.39229 11.444 37.6429
3.2563 11.428 41.1078
3.66172 11.8298 38.5024
3.41295 11.7311 40.638
3.61844 12.0435 38.7229
3.19852 10.8588 38.4799
3.54572 13.2359 44.8771
3.54886 10.6408 38.7541
3.5658 12.0207 38.8563
3.39738 12.0751 42.0996
3.59087 11.9128 41.9308
3.72146 12.1953 39.2004
3.38735 12.5053 42.2862
3.38964 11.4431 40.0265
3.46811 11.9346 41.3624
3.45606 11.1252 38.0678
3.26864 11.3395 41.3877
3.67548 12.0254 38.0685
3.17476 11.3715 41.6494
3.59868 12.1027 43.1783
3.74178 12.2921 39.0963
3.21094 11.3461 39.4224
3.30437 11.0942 39.5335
3.43537 12.0351 41.5485
3.43761 11.1873 39.2465
3.41867 12.0375 39.6679
3.25109 11.6408 42.3286
3.55528 11.9106 40.8492
3.34646 11.0212 39.1528
3.44877 12.2259 40.8962
3.33144 11.5134 39.7512
3.30527 11.6737 40.7352
3.28916 11.23 40.6611
3.41319 11.3866 38.1731
3.12263 10.596 36.1723
2.92736 10.9762 43.428
3.51476 11.1506 39.8263
3.39193 11.4842 37.6664
3.16568 11.3277 41.594
3.48789 11.9905 41.3764
3.34328 10.9001 37.7394
3.2213 11.5883 39.6792
3.25743 11.5859 40.7752
3.25681 11.4512 40.262
3.23708 10.7808 38.8482
3.15003 10.7201 36.7979
3.02043 10.8723 39.5055
3.18344 11.2681 40.7238
3.32823 11.5378 39.7551
3.11788 10.4656 40.5854
3.39901 11.8389 41.2741
3.34545 11.0555 38.0628
3.02635 10.3427 35.4651
2.92374 10.8961 39.3283
3.14636 10.7803 39.6021
3.20052 10.55 37.0571
3.10473 11.5027 41.247
3.33645 11.486 39.6344
3.18989 12.1791 44.9603
3.58831 11.4988 36.6067
2.96098 11.158 39.308
3.00369 10.3983 39.2622
3.17067 11.4966 39.1602
2.99268 10.749 39.8477
3.10807 10.9123 41.1343
3.29048 11.7179 39.7913
3.09896 11.1505 42.1526
3.31658 11.4128 41.1083
3.25638 11.3853 42.7366
3.33166 11.0343 38.8007
3.11187 10.8153 36.8336
2.95834 11.3517 43.1794
3.39746 11.8767 40.7204
3.16328 12.146 44.929
3.39116 10.9081 42.8257
3.52683 12.9206 43.8177
3.31483 12.0186 44.068
3.35071 11.6507 42.3397
3.26175 11.386 41.9195
3.30966 11.4018 40.5535
3.23055 12.4028 43.6736
3.37893 12.607 44.6025
3.32799 11.3092 39.842
3.04133 11.2929 42.3936
3.24901 11.2824 40.1982
3.08304 10.7811 37.6653
2.92526 11.5042 41.8086
3.11788 11.0111 41.8666
3.2007 10.9709 38.3901
2.87915 10.3913 40.8247
3.24739 11.3345 38.1791
2.97576 10.7973 39.1686
3.00526 10.9827 40.9293
3.22773 12.0544 41.53
3.10052 11.0415 39.9251
3.02961 11.5078 41.6357
2.99564 10.5941 41.2839
3.06507 10.5607 40.0765
3.0887 11.1439 41.6776
3.21026 11.8207 39.864
2.87169 10.3966 41.8182
3.14371 11.0559 41.4588
3.16748 10.8921 41.3966
3.27238 12.737 44.1491
3.13231 10.871 40.8658
3.13765 11.0823 39.3733
2.98876 11.5028 41.797
3.09686 10.8052 39.3001
2.92341 10.9821 40.9041
2.98535 10.6129 39.5361
2.9944 10.8817 37.0418
2.74184 10.4046 40.3775
3.00998 10.7507 40.0733
2.98585 11.2326 40.1917
2.88765 10.3887 40.9483
3.0452 10.7652 40.2251
3.03516 11.7558 41.2633
2.97423 10.8369 37.337
2.59368 10.0553 40.7204
2.87891 9.97472 40.3252
3.06414 11.1761 40.0437
2.90943 10.2561 37.9815
2.79699 10.2875 41.391
3.14531 11.4919 43.3594
3.19649 11.3246 38.2668
2.76772 10.4176 40.2544
3.01822 11.7989 42.1715
2.9431 10.5852 41.7425
3.03085 10.3941 39.3191
2.90657 10.5641 38.9465
2.91524 11.4481 43.1835
3.12159 10.7834 38.0388
2.73332 10.9687 41.9033
3.03818 11.1504 42.1225
3.02637 10.8064 41.2191
3.00027 10.6275 40.9974
3.09548 11.5993 41.2822
2.97132 10.9552 41.032
2.97749 11.0627 41.4925
3.0377 11.7571 43.71
3.12911 11.6627 42.3101
2.90174 9.62782 37.4637
2.73545 10.4564 39.9885
2.90471 10.5748 38.5801
2.83089 10.9976 40.0859
2.84415 11.0209 42.7124
2.98938 10.4343 40.5634
2.94898 11.2636 41.9007
2.95492 10.7422 39.1794
2.78727 10.9769 39.8474
2.73737 10.1898 39.6331
2.78847 10.3302 41.0514
2.89451 10.048 36.5469
2.68526 11.8541 47.2444
3.27321 10.8003 39.6366
2.7927 10.5059 41.0444
2.88757 10.9094 41.0558
2.86711 10.2711 40.1734
2.93492 11.8047 41.7128
2.8936 10.5747 38.3419
2.66273 10.2192 40.7008
2.87054 11.4186 42.1971
2.81761 10.0691 39.1506
2.76185 10.0923 39.9026
2.8756 10.8592 41.9053
2.94287 10.0987 38.6113
2.79994 11.238 41.1202
2.78086 9.81006 41.5878
3.07283 11.2911 38.3813
2.69337 10.9483 41.7095
2.84597 10.07 38.7127
2.7534 11.0158 43.4924
3.02306 10.3549 38.8088
2.75567 11.1187 43.2348
2.96336 10.6512 40.4688
2.78835 10.9208 43.3651
3.00447 10.6469 40.6866
2.86517 11.1732 41.2979
2.85717 10.8402 42.1883
2.9929 11.5394 41.4753
2.78025 10.257 38.2337
2.61251 9.91472 38.7603
2.67931 9.98162 41.2402
2.88614 11.1871 42.2047
2.8251 10.1233 38.3049
2.65755 10.93 43.4935
2.97657 10.1962 37.2778
2.58511 10.5775 39.5778
2.63947 9.48528 38.4129
2.67095 10.0145 40.7909
2.80458 10.4334 40.0987
2.72213 10.3185 40.9434
2.84881 11.1213 43.3455
2.91033 10.0104 39.3452
2.75291 10.1032 37.4988
2.6624 11.1613 41.5746
2.76345 10.7608 40.2356
2.71224 10.1998 38.021
2.60092 11.1933 43.544
2.88171 10.1965 41.2934
2.80566 11.0303 39.49
2.66733 10.3517 44.3889
3.02789 10.627 39.2762
2.6641 10.43 41.4636
2.82425 10.4192 38.2
2.58929 9.92288 39.8628
2.71017 10.071 39.3312
2.69674 10.3726 42.0911
2.8409 10.4877 39.4051
2.65415 10.7388 42.2135
2.82291 10.5366 39.7772
2.69418 10.0116 41.1374
2.77625 10.7752 38.8799
2.66208 10.3807 38.5523
2.57218 9.90189 40.4999
2.67344 10.1512 39.917
2.68346 9.91316 40.2579
2.77758 10.6395 37.9846
2.53172 10.1207 41.6101
2.78083 10.1282 40.3034
2.77736 11.136 38.9042
2.5623 9.65917 39.1743
2.65363 10.1751 41.3486
2.74405 10.1362 40.8331
2.71263 10.0529 38.6774
2.59298 10.3314 42.8
2.85597 10.4011 42.1756
2.8195 11.0334 40.185
2.68468 10.7837 41.9145
2.79082 11.4266 43.9787
2.85383 9.51797 38.2284
2.58158 10.2581 37.7095
2.46617 9.94859 42.1834
2.87568 10.927 41.2525
2.72647 10.559 41.4248
2.75503 10.6745 41.7715
2.77567 10.6039 39.8611
2.61398 10.2847 41.4347
2.76582 10.6347 39.7593
2.61305 9.68794 38.7487
2.57457 10.4175 40.5523
2.63708 9.59663 40.3681
2.70989 10.2066 39.2518
2.59273 9.90411 36.4269
2.42232 10.4831 41.4992
2.71808 11.0501 44.191
2.88211 10.2518 37.6262
2.46802 10.1625 41.5892
2.73012 10.2767 40.629
2.66213 10.161 40.607
2.65593 10.1852 42.5801
2.79346 11.1578 42.6801
2.75991 11.0542 40.7482
2.63477 9.70471 41.2233
2.76146 11.215 43.6591
2.84664 10.5261 38.7167
2.5309 9.66729 42.4117
2.84725 11.2688 43.5889
2.85196 11.3036 42.292
2.72441 10.07 40.3154
2.68046 10.3533 37.1222
2.36629 8.76519 37.0309
2.44079 10.1263 41.0838
2.6443 9.64362 39.2936
2.56185 8.9913 36.2731
2.42618 10.3647 43.005
2.78012 10.4325 38.9504
2.5259 10.7437 39.4128
2.53888 9.97878 43.0215
2.76749 10.6339 42.5601
2.75015 10.496 39.2247
2.57602 9.67647 37.5162
2.46861 9.72009 38.28
2.46829 10.4556 42.3104
2.73013 10.4509 40.5373
2.62193 10.2184 40.7006
2.64272 10.0286 39.2835
2.57118 9.94455 39.9622
2.57206 9.97694 41.1887
2.68687 10.6247 43.9497
2.86936 10.5907 40.1659
2.608 10.4723 38.2114
2.44207 9.76882 40.4659
2.63021 10.1232 42.3277
2.72362 9.75147 37.2837
2.39577 10.6045 44.2047
2.84578 10.3678 42.0978
2.7524 11.016 40.5092
2.61583 9.77652 37.5939
2.42986 9.14064 37.4337
2.50023 10.119 38.0897
2.47857 9.65401 42.3517
2.74845 10.6415 38.9619
2.48231 9.49972 38.0454
2.44183 9.33612 39.0243
2.51753 9.92459 40.5007
2.61432 9.72195 39.2663
2.54458 10.2388 40.0132
2.60305 10.4018 41.0466
2.62688 10.1597 41.0161
2.6314 10.947 41.6506
2.67351 9.93966 41.955
2.76209 10.6823 42.17
2.69319 10.3374 38.4666
2.47401 9.49348 38.667
2.50596 10.0403 40.7428
2.59329 10.2127 44.0608
2.82374 10.6501 38.0985
2.43386 10.1998 42.208
2.69307 10.6354 42.7971
2.78002 10.698 41.4872
2.6539 10.4899 39.2296
2.54361 9.90984 40.7846
2.58575 10.3951 38.7945
2.49773 9.88035 41.0547
2.67845 10.935 43.3565
2.7442 10.3494 36.9619
2.34677 9.43215 41.7061
2.63035 10.3635 42.9746
2.75422 10.4178 38.2437
2.4477 8.99135 38.6176
2.50096 10.0155 41.6048
2.6255 9.85641 40.3109
2.57066 10.4764 37.931
2.41999 9.53171 40.4968
2.58667 10.728 42.1312
2.657 10.5611 42.34
2.74507 10.6282 41.8456
2.67483 10.5616 40.6047
2.61741 10.7918 41.3123
2.62286 9.44184 41.0101
2.62795 9.63347 38.8736
2.49068 11.0335 42.4701
2.68748 11.01 41.2171
2.62535 9.99908 41.7801
2.69813 9.98442 40.9821
2.63274 10.6699 40.6877
2.57199 9.58124 37.3922
2.37706 10.2287 41.778
2.64284 9.80409 41.446
2.65771 10.2163 38.9468
2.47977 9.72497 40.8668
2.60707 10.6806 43.0527
2.72529 10.2775 37.5531
2.39343 9.5271 37.221
2.40464 9.89293 40.493
2.62486 10.1467 40.8656
2.63081 10.2187 39.716
2.55702 9.57296 40.5527
2.64084 10.4685 41.1768
2.62773 9.96285 41.3846
2.63633 9.96034 38.9351
2.47333 10.604 40.7443
2.64706 9.91835 40.179
2.56556 10.5016 40.5852
2.57828 9.69051 41.6071
2.66571 10.3509 41.2814
2.6247 10.2666 40.816
2.61681 9.93631 41.2043
2.63295 10.1024 40.9835
2.63568 10.9129 44.1404
2.79476 11.3436 41.8713
2.70321 10.6074 43.9177
2.80778 10.6628 40.6807
2.62685 0 0