# pn-170911/RbIIR-av-USNO-1280-1959.psd
# Power spectrum* (dif=0,1,2) (really just |FT|^2)
# NOTE: only the first half! (symmetric)
# weeks: 1280-1959
# 178 clock-days, 3 excluded
# PSD: 1441
937.862 0.125801 0.0265922
33937 0.63713 0.0237926
152723 2.84089 0.0250198
19864.6 0.853968 0.0252807
35654 2.45172 0.0262208
7907.01 0.725224 0.0252386
5688.71 0.803863 0.0239041
3635.61 0.592434 0.0256192
5788.93 1.44871 0.0264175
2202.08 0.645688 0.0283008
4220.13 1.72025 0.0257188
1513.01 0.68834 0.0238631
1536.03 0.852281 0.0241837
1159.84 0.698216 0.0226858
3015.92 2.60347 0.0296148
1076.56 0.865151 0.0252114
2075.81 2.43629 0.0314741
834.743 0.946615 0.028526
1505.46 2.17683 0.0291077
743.899 1.10097 0.0269562
1941.07 3.57473 0.0314494
571.349 1.13574 0.0281633
1390.9 3.1885 0.0315547
442.384 1.07439 0.0261776
859.597 2.16595 0.0308588
468.584 1.15827 0.0262971
1441.4 4.46545 0.0438545
532.99 1.58694 0.0316979
1120.44 3.95209 0.0400706
519.899 1.86335 0.0308518
843.156 3.24273 0.0371992
500.083 1.9633 0.031366
1027.84 4.98858 0.0482075
576.639 2.70749 0.0446084
675.379 3.42775 0.0401032
461.814 2.48321 0.0427709
953.296 5.56436 0.0634504
430.366 2.77719 0.0436367
802.336 5.23441 0.0646054
481.75 3.1784 0.050099
684.606 4.86624 0.0647134
418.525 3.21057 0.0442102
716.405 5.88471 0.0835234
458.441 3.76108 0.0561782
732.826 6.54049 0.090637
458.666 4.00931 0.0601899
533.285 5.24396 0.072784
457.863 4.77456 0.0644512
674.164 7.28265 0.10987
437.842 4.70838 0.0878232
475.623 5.35141 0.090493
421.607 5.09359 0.0820404
554.779 6.75963 0.10569
430.88 5.49377 0.091084
511.555 6.8418 0.123061
419.189 5.74008 0.102774
461.789 6.67507 0.124344
431.994 6.28074 0.122808
519.67 7.7795 0.146812
331.244 5.07889 0.0926368
462.359 7.46764 0.153028
372.152 6.29414 0.139412
465.387 8.06016 0.179035
359.833 6.94526 0.159737
467.929 8.92297 0.187059
438.724 8.23108 0.182335
477.401 9.61478 0.233185
326.188 6.65515 0.16133
344.294 7.72408 0.184922
362.44 7.86249 0.186497
358.814 7.89117 0.208466
349.133 8.1753 0.213009
381.906 9.03249 0.25718
309.257 7.67227 0.250013
324.831 8.08235 0.240586
308.487 8.20879 0.232742
355.735 9.64112 0.284895
298.473 8.24834 0.266244
384.869 11.2354 0.37745
356.28 10.224 0.313981
224.868 6.646 0.223228
279.313 8.53964 0.261511
311.264 9.66425 0.329102
261.261 8.31609 0.314574
365.351 12.144 0.420566
346.744 11.4688 0.431789
327.594 11.5181 0.416845
314.457 11.6235 0.428869
305.494 10.7906 0.415827
245.892 8.86038 0.353572
257.626 9.40383 0.388997
248.066 9.71408 0.406443
348.902 13.6523 0.586453
264.219 10.7392 0.447809
256.594 10.8367 0.471965
272.621 11.0653 0.479149
299.842 12.9797 0.586256
229.761 9.90644 0.455889
258.635 11.2219 0.552335
255.698 11.7077 0.581313
265.548 12.3607 0.645757
229.265 10.7321 0.547089
267.001 12.9128 0.635364
219.467 10.8246 0.560423
216.872 10.991 0.597349
210.054 10.2922 0.548072
291.837 15.0008 0.825902
222.197 11.274 0.668082
195.923 10.407 0.587817
207.07 11.1168 0.67329
193.365 10.9236 0.659161
229.131 12.4502 0.782678
228.198 12.9532 0.794098
210.081 12.6395 0.805679
206.36 12.3922 0.795409
186.466 11.5255 0.726038
188.919 11.8932 0.789118
209.54 13.0667 0.869106
196.822 12.9124 0.846027
182.911 11.9633 0.816838
193.685 12.7601 0.895059
174.097 11.6284 0.821132
196.606 13.5627 0.99504
178.575 12.1996 0.890591
175.9 12.4337 0.898394
148.183 10.234 0.772178
170.16 12.5039 0.933919
225.812 16.6627 1.25504
184.545 13.9454 1.12316
152.827 11.8237 0.986653
165.419 13.5705 1.15549
191.165 14.9602 1.19288
148.656 12.1808 1.05343
141.244 11.5856 1.02988
187.26 15.485 1.30805
168.854 13.9277 1.23454
167.214 14.1286 1.2386
124.766 10.4145 0.958247
152.926 13.6027 1.26134
165.466 14.3077 1.37001
153.687 13.8443 1.36008
142.741 13.1822 1.23376
133.63 12.4297 1.20469
130.014 12.266 1.22897
170.428 16.4007 1.62658
130.888 12.7902 1.29676
147.464 14.2229 1.44202
176.815 18.0592 1.88544
139.959 14.03 1.47363
138.343 14.193 1.5194
123.388 13.3236 1.44109
149.115 15.6478 1.66167
138.808 15.0305 1.68376
128.653 14.0146 1.57226
124.382 13.7904 1.61141
158.697 17.0057 1.93237
142.451 16.0318 1.84552
143.152 16.0817 1.81472
115.403 13.3171 1.62404
129.525 15.2482 1.80255
139.269 16.9309 2.1145
146.361 17.0056 2.10652
139.582 17.0371 2.04725
127.836 15.8253 2.01515
132.619 16.7107 2.14773
146.812 18.4392 2.39856
102.07 13.3362 1.77922
113.593 15.0744 2.03727
117.383 15.6676 2.12704
107.273 14.5293 2.00734
129.992 16.9554 2.34541
100.375 13.6389 1.93752
114.155 15.6848 2.21251
126.525 17.2949 2.45788
131.279 17.6657 2.48463
103.34 14.5937 2.14233
118.02 16.6726 2.40441
112.901 16.0544 2.34187
120.258 17.3019 2.57509
124.642 18.0381 2.63747
110.215 16.6968 2.55783
112.815 17.171 2.64368
95.7331 14.7497 2.34341
115.73 18.2252 2.94168
118.724 18.2391 2.98366
111.392 18.1651 2.99323
132.237 20.9358 3.37819
101.658 16.2295 2.70956
91.0182 14.8211 2.49291
98.168 16.1027 2.7217
88.1217 15.0177 2.60665
96.2255 16.5581 2.90286
122.527 20.7596 3.58943
104.658 18.1164 3.17981
92.8603 15.6794 2.91644
90.8685 15.8392 2.85758
113.059 19.3127 3.41899
99.0549 17.3458 3.0862
94.8667 17.2463 3.26516
85.3468 15.4932 2.90326
93.3684 17.3597 3.27615
83.3349 15.5264 3.00903
113.486 20.613 3.919
102.757 19.4731 3.71765
86.6712 16.5142 3.2237
93.7485 18.155 3.59279
81.6302 16.2791 3.25841
88.3651 16.8533 3.35943
96.0083 19.5955 4.10167
98.723 20.2126 4.16471
104.054 20.8318 4.31102
94.8098 18.9699 3.95856
83.8849 17.3823 3.71022
103.78 21.0622 4.52774
80.0842 16.7947 3.6506
83.966 17.1358 3.69345
80.1767 17.3639 3.8374
90.0188 19.1964 4.28898
90.6713 19.4945 4.38387
124.472 26.9023 6.00715
85.1911 19.1756 4.3772
106.468 23.1274 5.2278
88.673 20.0837 4.58163
91.3353 21.5244 5.14929
82.9799 18.7939 4.23921
73.742 16.9558 4.10383
89.7805 21.3134 5.0822
85.8905 19.8372 4.73581
82.8457 19.1947 4.63665
83.6114 20.1469 4.95822
80.4582 20.0246 5.06356
76.4952 18.2013 4.51277
80.9716 20.0196 5.01029
96.9435 24.6294 6.34399
88.1908 21.2702 5.31621
86.8154 21.6746 5.6531
85.2598 21.4771 5.40079
91.1336 23.3889 6.15146
86.3094 22.4382 5.97376
85.7679 21.9615 5.79985
81.5485 22.2197 6.07075
73.2333 18.7778 4.90938
79.8619 21.6209 5.91664
81.0893 22.2978 6.31483
74.962 19.8184 5.44405
75.2438 21.0402 5.92254
83.5044 23.0177 6.50574
75.6574 21.0306 5.96471
67.9491 18.7353 5.37634
79.7781 23.2655 6.85588
76.8558 21.7013 6.27595
67.5563 19.0666 5.5586
78.4984 22.8253 6.77448
77.9317 22.6038 6.62346
61.0243 17.9241 5.41369
58.8855 18.0458 5.47965
73.5361 22.5432 6.9304
65.1827 19.3759 5.86
71.2215 21.0247 6.31007
65.2837 20.3193 6.26137
69.3028 21.9571 6.98997
70.0039 22.0638 6.84847
64.2073 19.7565 6.33267
65.0104 21.1742 6.87897
65.8088 21.2103 7.12686
63.8015 19.4192 6.0776
61.9249 20.5481 6.85754
59.204 18.7614 6.2449
60.4271 20.1418 6.63714
59.5226 19.376 6.51675
63.6044 21.0393 7.06955
70.4376 23.6385 7.98622
59.8964 20.8656 7.17894
60.9085 20.2362 6.83438
72.5142 25.0518 8.73329
51.4544 18.2281 6.62592
57.798 20.0027 7.09782
64.0246 22.3879 8.15267
67.6994 22.6455 7.87802
54.0316 19.4067 7.1681
59.4599 20.902 7.4473
70.6269 25.9465 9.16754
54.9588 20.5276 7.69947
58.6187 20.425 7.45231
59.788 22.2005 8.36312
58.4728 22.1041 8.42701
51.452 19.6783 7.80538
56.8804 20.7811 7.87126
92.2337 34.388 12.4325
54.7258 20.8377 7.96076
59.4844 22.8681 8.72245
52.8194 20.6398 8.24269
59.585 23.834 9.5781
58.4981 23.913 9.83252
58.2337 22.4079 8.81997
61.8697 24.6168 9.92592
54.0401 21.0631 8.41327
51.0252 19.8662 8.02138
57.9683 23.3872 9.54797
59.789 24.3354 10.0239
49.0084 21.0222 9.29163
60.6551 24.5931 10.1613
63.9197 25.4653 10.274
49.5416 21.2159 9.33461
57.2937 22.7118 9.33576
56.5519 24.3928 10.6519
58.864 25.1565 11.1053
59.5149 25.1368 10.8034
50.449 21.1303 9.02118
45.4289 20.3108 9.42737
54.9439 23.6285 10.138
47.1072 20.231 8.99323
51.7588 22.1014 9.53391
53.7037 24.8747 11.4923
58.4762 26.2331 11.9069
57.1094 25.6045 11.5011
46.9477 21.5714 10.1309
52.2356 24.3822 11.4497
46.7627 20.3298 9.51007
52.9622 24.0299 11.1457
54.5755 24.4936 11.0658
50.4553 24.005 11.4506
46.778 21.9947 10.5399
49.4462 23.858 11.7548
45.6046 20.7865 9.62267
46.8174 22.3848 10.6211
51.2089 24.9477 12.3763
41.2143 18.7301 9.00424
49.3543 24.166 11.6333
45.0814 21.1334 10.1421
42.8107 21.4214 10.901
47.3726 23.4096 11.8662
48.2552 24.3071 12.4066
52.638 24.7356 11.803
48.352 24.7436 12.5499
45.9596 22.5513 11.6593
42.9983 22.4353 12.0066
41.6382 20.1243 10.0636
43.188 22.5493 12.0335
46.9912 24.2963 12.4997
42.0357 22.5907 12.255
45.1388 23.8066 12.6348
50.907 25.4416 13.2803
37.7252 20.4655 11.5261
49.3716 25.7795 13.3837
41.9156 21.9229 11.7375
49.5355 26.8458 14.5687
43.4771 23.6685 12.9235
40.4115 22.3258 12.4175
40.6065 21.6071 11.7329
37.8178 21.1891 12.1892
40.0519 22.1632 12.8712
41.1605 21.1996 11.4469
37.5351 20.582 11.5372
41.6162 23.0077 12.4629
40.7043 23.2911 12.7906
33.8674 19.8156 12.089
38.0258 21.6179 12.6441
44.4379 25.6181 14.9327
40.2979 21.9768 12.5222
44.359 26.3599 15.4844
38.033 22.2461 13.245
43.1069 25.1958 14.9749
43.3372 24.8075 14.4702
43.709 26.7312 16.7808
44.6964 25.904 15.6135
39.9268 22.1923 13.0751
32.2909 19.2827 12.1068
38.2172 22.5367 13.7218
41.2496 24.0675 14.3385
37.3298 23.2302 14.6378
38.6662 23.1765 14.0736
37.0412 23.2984 14.8377
38.1414 23.0509 14.1537
38.8403 25.5524 17.0063
46.1685 26.7985 15.7771
40.0457 26.2155 17.1101
39.5882 24.7654 15.801
38.1094 23.7755 14.9948
37.7361 23.8367 15.3144
38.1979 24.407 16.0058
39.4318 24.7602 15.955
32.6452 22.2207 15.3834
36.5643 24.0875 16.7815
46.6457 28.5302 17.6768
39.2303 25.3945 16.3826
34.9836 23.0195 15.2412
31.2299 20.9355 14.4977
37.7999 24.6766 16.2456
32.0688 21.3524 14.5943
32.3512 21.3189 14.2617
30.8485 20.1433 13.5583
32.8348 22.7149 15.2924
31.8275 22.3457 15.8277
37.2036 25.3067 17.2546
34.8839 24.6197 17.1385
27.0986 18.8157 13.5043
33.6154 22.8979 15.696
31.6626 20.9419 14.472
32.0961 23.694 17.0952
30.5404 21.2161 14.9804
26.8095 19.508 14.5328
32.3694 22.4524 15.9957
37.7602 27.6728 19.9587
27.7702 18.952 13.8445
33.3084 24.7018 18.5393
36.0316 26.151 19.3272
34.6423 24.0748 17.0766
31.2229 22.1051 16.1711
27.322 21.1001 16.1839
29.9458 22.2256 17.3069
32.4873 24.0001 18.0099
30.9825 24.0513 18.99
30.8133 23.0004 17.4017
29.3461 21.2545 16.0809
29.4694 22.4362 17.296
30.3174 23.4492 17.9104
29.0581 22.8017 18.0434
32.3534 24.5131 19.0897
35.4165 26.4588 19.4714
30.1913 23.7317 18.4389
30.4824 25.1173 20.8644
32.1737 23.8635 18.2396
32.1958 24.5724 19.2738
29.896 23.6007 18.7109
28.5556 22.5724 17.8793
29.2199 23.676 19.6385
31.8087 24.5352 19.9483
31.443 24.8894 19.5203
31.645 25.7155 20.8465
26.6607 22.2484 19.2712
30.2721 22.99 17.87
24.3168 20.1659 16.8888
27.8031 23.9871 20.1838
28.7749 23.136 19.1131
28.9108 23.561 19.8174
28.1018 22.354 18.026
27.9375 23.4309 19.8997
29.7834 24.5331 20.2747
25.6139 21.5752 18.9937
30.1363 25.0789 21.6223
26.0808 20.5902 16.6704
21.1145 19.0671 17.2937
28.0333 25.1362 22.6989
27.5372 22.7299 19.4884
23.5739 20.1732 17.6684
26.8554 22.6206 19.2807
24.3096 20.4822 17.7147
24.0101 20.6585 17.9701
24.1865 22.0945 20.2751
29.451 25.1971 21.5887
24.4828 22.469 20.8007
28.3496 25.0484 22.5679
28.4169 25.3537 21.9575
26.2538 23.7814 21.6448
24.3286 22.8571 22.5174
29.5089 25.904 22.8021
26.8855 24.1828 23.1401
29.586 25.442 21.6705
22.0137 20.8804 20.7899
24.6848 21.0743 18.4889
26.2825 25.1333 24.2262
29.0462 25.6705 22.9626
23.3243 21.2996 20.2303
23.6864 22.7155 22.4641
28.5578 25.1812 22.3083
22.9383 21.6503 21.2598
23.9106 23.4894 23.8088
28.1541 25.3517 23.0722
25.3652 24.1914 22.7617
23.1742 22.8091 22.9079
26.9874 24.6969 23.2801
25.826 23.8243 22.5439
25.2318 24.5857 23.2766
21.4146 20.8364 21.6886
26.2971 24.2348 22.4147
21.9846 21.8379 21.6422
25.1074 24.585 23.542
21.6569 22.4049 23.0581
25.7399 26.0372 27.3676
33.6382 33.0814 31.2105
25.8614 25.2047 25.3032
23.1594 23.0797 23.9374
23.5874 24.2988 25.5789
23.8196 21.6053 21.2505
26.273 27.3314 27.9755
23.6686 23.8553 24.4912
22.7703 23.976 25.907
26.3111 25.7477 25.6522
22.0377 22.4654 23.7808
25.2655 26.2066 27.363
21.9015 23.5237 26.2365
26.9477 26.1213 26.2443
29.2694 29.8525 30.151
21.4745 21.237 22.8655
23.5331 24.0487 24.2163
20.8337 21.1137 21.7668
20.2254 22.4651 24.8037
18.3714 19.9265 21.747
19.3456 21.6338 24.8736
22.2553 21.3363 21.5686
21.2246 22.1163 23.2131
19.3325 20.8108 22.3116
19.0672 20.5874 22.9251
22.6605 25.3039 28.5483
22.7896 24.4801 26.6598
22.0187 23.3517 25.8904
23.5393 25.6237 27.0035
20.7317 21.119 22.8663
20.3092 21.7318 23.4984
18.2706 20.6505 23.909
22.7677 25.793 28.1485
17.949 20.647 25.9274
22.7472 24.9871 27.9235
23.8391 25.4581 27.1724
20.0992 22.9649 25.5999
19.9014 21.9127 24.5839
20.33 22.4248 24.3696
16.5603 20.3819 25.1806
19.4947 22.5804 27.0411
19.7748 22.2332 26.3939
21.4623 23.8157 26.1346
20.5074 24.8778 29.9877
21.3912 24.4032 29.577
23.5963 26.2622 29.2551
23.1159 25.703 27.8355
17.2016 21.8227 27.9641
22.368 25.0727 28.3783
22.3165 26.8249 31.5786
18.9945 22.4436 26.4058
18.1289 22.4778 28.7426
17.849 20.3987 25.7504
22.9015 26.5036 30.374
19.4916 23.9583 30.9816
20.841 22.5873 25.3388
17.7666 20.4932 23.6622
19.698 25.0268 30.4387
16.7058 20.7492 26.7079
18.9572 22.6223 28.1159
19.7187 23.1874 27.6719
20.4653 25.3768 31.6032
19.7749 24.3721 31.0505
17.9349 21.4251 26.9271
19.3908 24.3651 29.8489
17.1441 20.7967 25.8766
18.0758 21.9285 27.044
16.941 20.9061 25.9476
19.2962 25.1539 31.7341
17.8038 22.838 29.4346
17.2855 21.1324 27.6806
18.4226 22.4913 28.1465
19.5093 25.3972 33.2875
19.2454 23.6401 30.7483
19.1607 22.399 26.977
16.9598 21.1849 27.9614
16.6456 19.7298 24.4631
18.4099 23.4718 28.5476
17.5829 25.0887 33.0706
14.4716 20.0355 29.2669
17.6564 23.2571 30.8634
17.2583 22.4903 30.1804
17.1612 21.6967 29.2198
19.8792 23.8529 28.8531
18.7388 27.2423 38.2442
19.0807 24.267 32.9833
20.1191 26.4437 34.5119
18.3534 22.6477 29.0365
16.6634 21.8327 29.0961
16.3414 20.9764 27.9009
17.946 23.8387 31.8654
16.7226 23.4567 32.3343
15.0173 18.9957 25.6713
17.4686 24.7957 33.9617
16.0924 20.9343 27.7334
16.4323 23.8085 33.9153
16.4357 22.2143 33.2987
22.4959 30.2515 39.1049
13.5232 17.5519 25.1695
16.0053 21.8323 29.7385
16.3959 22.6156 31.1987
14.1018 19.8028 28.9733
17.159 22.9809 31.8091
17.0878 24.1326 33.9292
14.9532 19.7656 27.3789
15.2441 21.647 30.1647
14.4849 21.526 31.6829
15.8074 21.9068 31.9157
17.5092 24.8488 36.8393
18.9267 26.0348 35.9285
19.7399 30.7307 44.8865
15.5051 19.7539 28.4811
15.1613 21.3901 30.314
14.2476 20.7527 31.4457
18.7143 26.7143 36.9652
13.9047 19.3836 28.286
15.5309 23.5912 35.3217
15.914 21.7469 30.3201
12.2189 18.2821 29.0764
14.3991 19.3041 27.5743
14.7027 21.3191 31.5209
15.0174 22.0655 33.5765
15.7621 23.1816 33.4545
15.1992 21.8474 31.6274
13.9787 21.0667 30.8909
13.3141 20.1822 31.3614
13.984 22.2503 34.971
16.4346 23.5311 34.5439
14.2499 20.1711 29.7526
14.7478 21.9997 32.0518
14.088 21.3727 34.354
14.5118 20.3737 32.1127
16.4496 23.6371 32.5053
12.843 21.4877 36.0732
16.4209 24.7671 38.3817
16.1894 23.5705 34.8321
14.261 21.638 33.8452
14.5508 20.2217 28.774
12.7919 20.6517 32.1461
13.9119 22.3807 34.2265
13.3281 22.2322 36.2231
12.88 20.0977 33.6088
14.425 22.3878 36.0988
13.2178 20.0824 33.2784
14.0773 20.0116 30.3961
13.2978 20.8834 32.7639
14.1283 23.532 38.4818
16.0221 24.8827 39.2484
14.0424 21.3157 34.5107
14.0331 21.2958 33.7416
14.2504 22.1807 34.2948
12.0421 18.6103 29.6906
13.5695 22.6135 36.806
12.256 19.156 32.7838
13.5303 20.2828 32.1928
12.8271 20.3355 32.3415
13.9787 23.1992 38.472
13.5879 20.6432 33.1532
13.1524 21.0577 35.6795
14.2387 22.2199 34.5343
12.1708 20.0403 33.9063
12.2728 19.7975 32.0028
11.3902 18.4867 30.1277
11.2498 18.9101 30.7344
12.5149 23.3237 41.5422
13.1293 19.7739 33.5619
12.7156 20.2084 34.2325
13.3868 21.4297 33.814
12.4068 20.6226 33.779
11.9987 21.2277 36.5481
13.0639 23.6137 42.4591
13.6663 20.654 33.7757
12.4801 20.653 34.627
10.113 16.8182 31.8342
13.551 21.52 34.6635
12.2386 20.0316 33.8891
12.6774 21.466 37.6656
12.6985 19.498 31.9682
13.2568 24.0031 42.3454
15.5847 27.2644 45.947
13.509 22.879 40.8226
12.701 20.0918 34.5583
12.6171 21.2313 36.4727
11.4151 20.4982 37.2217
12.1158 20.7852 38.4108
13.9579 23.7184 38.7861
11.7909 19.7587 33.4884
11.4956 20.6089 37.3527
12.7123 22.0267 37.7619
11.969 20.8601 35.762
11.5277 21.5708 38.9174
11.1365 20.2383 36.5674
9.76246 17.4837 38.192
16.3524 27.6241 43.6965
10.8479 18.8169 35.3561
11.3215 19.2161 34.2491
11.9243 21.3481 37.7654
12.4654 22.7141 38.2175
10.5714 20.1244 37.7308
12.1669 22.3794 39.0615
10.4867 18.4968 35.0302
10.2419 20.0315 39.29
11.4468 18.6476 33.791
11.0673 19.6116 36.0918
12.5038 23.3625 42.6226
11.3811 18.5712 31.8525
9.94697 19.3796 36.0796
10.1418 19.3373 38.1641
11.3612 20.1033 36.4791
10.3807 18.2777 34.3248
11.0389 20.5704 37.9518
11.7334 22.1191 41.6027
11.2066 19.0416 34.5486
10.8516 20.8573 39.6126
10.8005 20.2893 40.5188
11.4995 19.5048 35.8121
11.095 21.0864 40.1124
10.7614 19.2762 35.143
10.2135 18.9475 35.8629
10.4383 19.9802 38.5614
10.5177 19.3393 37.0534
10.262 19.3262 35.6294
9.27679 16.9387 32.5472
9.92492 19.0855 35.7647
10.1242 19.8166 38.8353
10.4299 20.6757 41.4738
11.1926 19.954 37.2535
11.411 22.9713 44.6465
10.6676 18.8537 35.0444
9.68806 19.012 35.4484
9.88386 20.413 43.8088
11.6567 20.3702 35.7908
9.3264 18.3941 38.1834
10.411 18.769 36.1954
11.3253 21.9724 38.9895
9.4707 20.1231 40.4867
10.5199 20.4074 38.4786
9.10291 17.6373 34.5742
9.01284 19.7369 43.9821
10.7459 18.4834 34.6708
8.78521 18.2925 40.4164
10.8442 19.8348 38.0434
10.0906 20.242 41.9696
11.4616 23.0301 46.8909
11.2937 20.6798 38.9813
9.32576 18.2008 36.0106
9.77907 17.9921 32.9519
9.86475 21.2316 40.1752
8.25962 16.9911 37.5007
10.3581 20.9719 41.2692
8.23568 16.6 36.116
10.1598 20.1633 38.305
8.72395 19.4231 42.2579
9.63685 18.4156 36.6137
8.93941 19.1863 40.0145
8.20026 17.1222 37.9945
9.19032 17.8933 37.0302
9.88309 20.5336 42.2039
9.69728 19.2965 39.9641
9.77874 21.6238 49.9034
12.0324 23.549 47.5796
10.645 20.8039 40.9504
9.64958 19.7809 39.6717
8.06819 16.6949 36.3069
7.99379 16.5838 38.7347
9.56598 18.2064 36.7908
9.24709 17.6969 34.8634
9.37393 20.7416 43.0432
9.5196 20.0935 42.573
9.92475 19.9451 41.0706
9.17167 20.0085 43.164
8.48467 17.0087 37.3564
8.11212 16.8031 37.2213
8.86284 17.745 37.3592
7.98376 16.1365 33.9271
8.18903 17.296 37.2619
8.78304 19.3894 42.1762
8.94659 18.0192 36.7437
8.19079 17.9136 39.5698
9.3161 20.8294 42.9602
7.98084 17.216 38.1936
7.7856 16.4091 37.9875
9.32948 19.3532 37.7692
7.37481 16.3075 38.2458
8.31064 16.7269 37.4624
8.54239 18.1052 38.0403
8.27652 17.0155 35.6972
8.15614 19.815 43.38
7.67458 18.9173 53.5115
12.5951 23.3552 43.0277
8.73464 18.009 35.514
7.25785 16.5464 36.8071
7.67502 17.7262 38.0774
7.31959 16.6825 40.0405
7.92357 16.6239 37.4883
8.08694 17.1944 36.8043
7.69565 18.0254 41.8436
8.5089 18.1094 39.6821
8.24201 17.7096 40.3074
8.51085 18.2648 37.9562
7.31013 16.3272 37.7986
8.34204 18.1045 40.4388
9.03252 20.2748 42.5171
7.62448 17.2555 40.5933
8.22387 17.9048 37.2703
7.65487 18.1086 42.4299
8.73042 19.4107 40.7976
7.71146 17.9288 41.4296
7.03153 15.2848 34.3986
6.36257 15.1431 38.3086
8.11776 18.5541 42.9235
8.00663 17.4326 35.9944
7.00607 18.7864 46.3356
7.29585 15.373 35.7014
6.97977 15.5773 32.5295
5.33769 13.4324 34.3161
6.78334 16.3353 38.6342
6.11696 13.5993 34.2568
6.54637 15.1569 39.2331
7.84845 17.1379 39.0363
7.48989 16.7164 39.6576
8.04584 18.4421 40.6457
6.36333 14.8378 38.0848
7.50496 17.447 40.6448
7.03904 15.8097 36.3457
7.02817 17.7888 45.0325
7.94252 17.3203 39.9145
8.08674 21.0996 50.5706
7.49971 16.6474 41.0473
7.07851 15.4028 38.7946
7.67945 17.3832 38.8339
7.16704 17.6612 43.5248
7.32159 16.7839 41.3086
7.78697 17.8538 42.5431
7.67139 19.182 49.4173
8.65132 18.6209 40.743
6.61499 15.6476 41.1289
8.17874 19.197 45.0044
7.65211 17.3949 39.766
7.50742 19.0491 45.8905
7.02559 16.2569 42.6177
8.22102 19.5532 46.9359
8.2964 19.0463 42.9611
7.48196 19.3347 48.1286
7.29597 16.8214 43.118
6.88373 16.8687 46.7755
8.8557 19.6584 43.8841
7.90393 20.2118 48.8196
8.10776 19.8369 47.6313
7.22861 18.2314 48.7003
7.31348 15.6072 37.423
6.72758 16.7427 41.995
7.82421 19.9825 49.2963
7.68533 18.1257 45.1653
7.16135 16.4281 40.5738
6.76136 17.1865 45.1452
7.5857 17.849 41.6202
6.85929 16.8829 42.6605
6.75249 16.0367 40.4485
6.4179 14.4854 34.2681
5.86296 16.3033 43.5317
6.4764 15.1315 39.7246
6.53377 16.2073 41.399
6.75991 16.8087 43.0725
6.52779 15.1109 37.9193
6.37855 15.0568 36.5745
6.06264 15.8138 42.2457
7.26228 18.9915 48.5948
7.07451 16.4611 42.6883
6.70894 15.5539 39.6526
6.16641 14.8448 38.5278
6.0934 14.251 33.618
5.97829 16.4947 40.9522
6.01057 15.7895 43.2685
7.06272 17.0745 45.2371
7.06564 16.4327 42.0589
7.35338 18.3989 42.7437
6.25578 16.1002 37.9357
5.61623 16.4665 47.181
6.50023 15.1697 39.7869
5.97669 14.4753 38.9738
6.62006 17.4865 44.134
6.17071 16.261 45.0763
5.97323 13.59 37.3881
6.01892 16.6194 53.3746
10.0414 24.2159 51.3056
6.18431 15.544 44.735
6.86894 16.219 42.8572
7.06549 18.4433 42.6828
5.4842 13.9772 40.8485
6.52961 15.0722 35.5918
5.86154 16.6842 41.6917
5.57238 14.4022 39.317
5.47695 14.1564 36.5471
5.82668 16.4732 45.763
6.27053 17.0444 47.5283
5.95836 13.8163 38.4258
6.45052 17.8353 50.0453
7.31979 16.5223 39.6442
5.86004 15.6252 39.4929
5.32252 15.1541 43.6512
6.71003 16.8095 42.6465
6.44184 17.6491 45.8657
5.84989 15.3184 40.2029
6.10388 17.8559 48.7397
6.06697 14.1013 36.4561
5.04395 13.1297 36.9231
5.54869 16.1249 46.8933
6.74824 18.0413 44.9915
5.90703 16.0808 45.1629
5.8297 14.7337 42.5196
5.67408 14.6688 41.0843
5.79459 15.3937 43.4256
6.20771 15.4081 38.3652
5.14632 13.8215 37.9174
5.50684 15.6671 44.6064
6.06737 15.2049 38.1404
5.57398 17.4463 47.7484
5.35475 14.2905 43.1993
5.82375 13.8824 38.1257
5.6805 16.4508 45.3758
5.8249 14.2424 39.9647
5.52795 15.0128 44.4669
6.35446 15.8411 40.6436
4.98758 13.8365 39.4875
5.5564 14.7734 40.9982
5.73022 15.9244 40.6249
5.5756 16.8299 44.7467
5.02791 13.572 39.0325
5.37745 14.9021 39.6167
4.63272 13.7336 42.9154
5.61332 14.9251 42.5743
5.32043 12.8354 36.976
5.41705 15.3789 40.1668
4.84946 13.7738 39.5614
5.25754 14.8871 39.0801
4.4792 12.8589 38.6012
4.88509 13.2046 39.4493
5.36265 15.4445 42.5252
4.76952 13.2836 42.446
5.81685 15.6765 42.9419
5.59653 15.8555 43.5216
5.34042 13.2182 36.8282
4.769 14.3232 42.0409
5.31763 13.8763 37.3667
4.7165 14.0588 44.396
5.65616 14.3424 38.9464
5.22853 14.7937 41.0773
5.10348 14.5897 38.6218
4.50044 12.8388 38.0579
4.72576 14.1875 43.2638
5.003 13.6617 42.3902
5.47404 15.8853 45.8016
5.1935 12.726 37.3757
4.75419 13.0089 38.1278
4.94261 14.2124 41.2091
5.03087 13.6776 40.6925
5.12349 14.4234 40.534
5.04884 14.0827 42.1888
5.21939 15.5125 42.4798
4.22359 12.6197 41.2338
5.1963 13.0238 35.5239
4.47422 12.5707 38.7496
5.24768 15.5988 41.2339
4.36022 11.2829 36.6126
5.00487 13.8814 37.8988
4.52501 12.4406 35.5593
4.43525 13.8917 41.1553
4.59862 13.2711 40.0078
4.68479 13.3847 39.3965
4.18343 13.0082 47.9343
5.86773 14.6902 37.7987
4.77343 14.1 41.9592
5.44336 16.0305 44.1176
4.78318 13.5407 40.6516
4.76114 14.132 45.7542
5.26963 14.4142 43.4604
5.22107 15.881 45.1516
4.6963 12.6145 37.4682
4.56331 13.6186 39.73
4.24834 14.2164 61.0859
8.29506 19.9022 42.281
4.49892 13.6523 38.6903
4.53268 14.4333 40.9046
4.49537 13.12 39.0201
4.68486 15.7244 45.1225
4.44716 12.0376 37.3619
4.42 12.6337 37.2906
4.4481 13.9467 43.3284
4.79057 13.4774 39.5102
4.42776 14.0322 45.4484
4.94561 13.4289 40.6509
4.59886 14.0985 41.8765
4.45819 12.04 40.1746
4.91804 14.7684 44.2684
4.90914 14.5265 41.4391
4.22159 12.6499 40.9818
4.64256 14.1539 43.4107
4.53816 12.2451 38.6897
4.62725 13.761 37.9525
4.23588 13.0046 41.3973
5.1282 14.4124 37.2393
3.87139 13.1842 40.6139
4.4233 14.7329 45.9957
4.63467 13.9486 45.6055
4.59421 12.7074 40.8062
4.55693 13.1632 39.0972
4.28059 13.8976 40.9479
4.15886 12.1821 39.1495
4.20007 13.1988 41.1756
4.22805 12.1168 35.5179
3.77183 12.3628 35.7103
3.53987 10.9766 37.3592
4.08155 12.895 45.3689
4.80407 14.1402 44.6283
5.01641 14.6091 43.5882
4.36555 12.503 41.0572
4.87562 15.1569 43.1033
4.25489 12.6365 38.1322
4.20892 13.6597 42.6249
4.40071 12.5671 38.9214
3.98932 12.2622 39.4221
4.20202 13.5303 44.1937
4.72591 13.6222 42.7342
4.66699 12.8932 34.4293
3.57087 12.7972 42.01
4.38252 12.5907 35.3659
3.57763 11.9947 39.3243
3.93884 12.1412 41.7251
4.77256 14.0283 38.5323
3.75195 12.7482 46.7063
5.25611 17.4447 51.0216
4.4429 12.6499 41.211
4.06658 12.7124 45.4467
4.72572 13.6368 42.5762
4.4627 14.2517 47.8714
4.74175 14.3088 46.9644
4.82363 14.2936 43.3086
4.21501 11.5391 31.857
3.61566 11.74 35.6428
3.56736 11.9244 37.8821
3.32441 10.693 36.7805
3.50414 10.6905 40.7837
4.61322 15.5343 47.1309
4.20653 11.1922 37.4567
4.02705 13.4195 43.0279
4.01322 12.5436 43.7949
4.32331 13.0991 37.9151
3.50417 10.9579 40.4056
4.26611 13.3372 43.6953
4.33176 12.088 36.6427
3.85996 12.217 39.0821
3.92336 13.0064 38.2584
3.47228 11.8133 39.5247
3.89468 13.3192 41.2427
3.78019 11.0054 38.6541
3.93641 13.7686 46.5615
4.27363 12.4711 38.3492
3.57073 13.2169 49.9648
4.64814 12.7357 38.9376
3.98666 13.4035 46.7949
4.32457 11.6983 34.2124
3.52515 12.1823 42.1832
4.08879 12.49 40.2462
3.92328 12.4988 39.2859
3.83769 13.2467 43.0829
3.84638 12.1351 40.0435
3.81471 11.7881 38.4599
3.65024 12.0317 40.9279
3.99934 12.8555 40.8896
3.72857 12.3243 39.8494
3.50888 10.306 37.3302
3.99606 12.5462 40.7593
3.77989 11.7921 39.2884
3.71998 11.4865 38.1746
3.69436 13.0759 45.5069
4.27943 14.7962 59.7822
5.69413 16.4151 45.6357
4.02512 12.5609 42.7471
3.97348 12.8006 43.9571
4.14545 13.4548 40.5818
3.40786 10.2497 38.777
3.84113 13.2521 47.0638
4.42152 12.5962 36.2901
3.47956 12.8707 41.6904
3.86685 12.8684 44.7889
3.96086 12.1844 38.1262
3.43568 11.7455 43.023
4.06877 11.6958 34.0748
3.22722 11.6871 42.5218
3.78991 10.3242 34.6291
3.32546 11.838 40.2082
3.72162 12.7789 42.5436
3.66224 11.3055 37.1315
3.54432 11.8612 41.5787
3.67774 11.5767 42.3024
3.9791 12.8994 41.5717
3.57159 11.8621 38.1155
3.50772 10.8995 38.3296
3.77213 13.0695 40.4569
3.25803 10.9013 43.9655
3.96909 12.2353 44.0027
4.2055 12.595 37.9679
3.16485 10.4463 34.3559
3.29865 11.6646 37.7945
3.20987 11.6123 44.9227
3.93025 11.5445 36.1202
3.64415 12.8176 37.6417
3.20473 13.0946 44.4099
3.411 10.1491 38.2348
3.50717 12.7437 43.9163
3.45935 10.9661 41.2196
3.49643 11.5022 38.9833
3.3269 10.7708 36.1276
3.13603 11.5924 36.3282
2.94636 10.1079 40.1467
3.63228 11.6781 41.6235
3.68921 11.8223 40.5368
3.48062 11.4926 38.0203
3.38471 11.673 41.8193
3.84325 14.3521 48.1417
3.72478 11.5484 41.8349
3.53862 10.8467 37.2681
3.422 11.6235 39.0918
3.38903 11.3103 36.7353
3.06521 9.18214 30.9912
2.82373 9.6405 36.6356
3.46323 12.6463 41.5664
3.46222 11.4863 39.3549
3.54951 11.9884 36.497
2.95368 10.9323 38.3764
3.03974 11.4859 44.3848
3.7232 11.8153 41.213
3.44635 11.8899 41.9111
3.44948 11.7767 40.7833
3.20201 10.29 36.2245
3.03394 10.4665 35.8559
3.067 11.6537 41.6508
3.10412 9.23059 33.6129
2.94496 10.1257 37.9934
3.37564 12.0515 42.812
3.44039 11.465 37.972
3.03393 10.7731 38.8161
3.11926 10.5976 38.8693
3.13278 10.1868 37.7346
3.32442 11.2185 39.0057
3.10645 10.5926 40.3259
3.58032 12.6402 37.8962
2.83322 10.4649 41.2271
3.33398 11.1184 36.0681
3.02261 12.3614 47.4908
3.72301 11.8041 42.0188
3.37801 11.9026 39.121
3.10961 10.0028 38.6211
3.36794 11.5707 41.2198
3.33265 11.3861 38.9184
3.0838 9.5194 34.8091
2.99634 10.77 39.4045
3.194 10.3868 38.0494
3.22167 12.2621 41.2567
3.14675 11.641 43.272
3.39847 10.7971 39.3332
3.34696 11.8469 39.3873
3.04669 11.4718 45.0523
3.67925 11.4053 39.5641
3.08428 10.6715 39.238
3.2109 10.5924 36.1544
2.88049 10.2928 38.2406
3.03071 10.781 41.1191
3.29071 10.7187 38.7085
2.92035 9.91385 43.867
3.69598 11.9193 39.0692
3.45506 15.2527 68.9052
5.38109 16.8349 48.4823
3.55255 12.9295 45.6226
3.4735 11.7216 42.2497
3.18048 10.4097 39.143
3.16893 10.8755 46.0459
3.96955 12.8713 35.3381
2.66851 11.6393 42.7325
3.20652 11.8966 41.8932
3.1919 10.0154 36.7749
2.848 10.764 44.3487
3.51245 11.4684 36.9477
2.96218 11.3217 41.0395
3.26289 11.6253 41.7751
3.13121 10.9768 40.2329
3.00899 10.5368 41
3.32976 11.4333 34.6392
2.78554 10.7426 40.2093
3.10807 11.3427 35.622
2.61147 10.3186 39.1119
2.93092 10.0462 37.7552
2.92589 9.88308 38.2052
2.98381 11.3556 36.7873
2.65894 10.2458 39.4842
3.04995 10.5575 36.5042
2.69406 9.84433 34.659
2.71966 10.8188 37.6188
2.78649 9.69847 36.2368
2.73641 9.48609 35.8322
2.75541 9.49889 36.6162
2.89377 11.5185 42.8285
3.18028 10.4931 37.5379
2.81776 10.4692 37.1298
2.5918 9.83703 39.5424
2.93077 9.54883 36.3573
2.7614 9.80884 41.1065
3.12271 10.7611 39.5173
2.912 9.60576 37.5229
3.04684 11.7079 40.3619
2.94231 10.6148 39.9286
3.06742 10.9378 36.101
2.64046 10.2856 44.8867
3.46743 11.2376 35.3747
2.58527 10.4101 38.4734
2.79313 9.32045 36.8211
2.86887 10.8569 42.1546
3.1558 10.904 38.1872
2.85215 11.0297 39.942
2.91861 11.0492 37.5366
2.58407 9.15208 38.6007
2.85197 9.67808 37.0569
2.83238 10.3081 36.9221
2.74146 9.88476 37.9139
2.80848 10.1479 39.5582
2.93881 10.3483 35.7035
2.66821 10.4827 35.9333
2.45633 9.55405 42.8343
3.03704 10.5466 36.2231
2.56171 9.74964 37.8618
2.79562 10.0918 33.4564
2.38877 10.487 45.9113
3.30327 11.7666 46.9134
3.35264 10.2241 41.5742
3.20708 10.3307 33.7281
2.46167 9.49454 41.6672
3.14116 11.3109 34.8811
2.59285 10.4422 38.484
2.77713 9.54848 39.1422
2.79385 10.1048 37.0526
2.70367 9.80877 40.1352
2.85311 9.2665 36.9095
2.8062 10.9188 40.519
2.96711 11.1527 42.5394
2.9635 10.9549 40.4653
2.92909 10.2301 40.8471
2.87296 10.1665 39.93
2.94027 10.0534 36.3138
2.62635 8.89105 30.419
2.19809 9.07918 38.8385
2.82039 10.6415 41.685
3.18283 12.6569 44.9247
3.0607 10.3227 38.4572
2.75482 9.98784 36.638
2.50938 9.84338 38.5319
2.91149 10.1349 39.7171
2.90437 9.89031 37.8957
2.75719 10.6616 37.274
2.66444 8.75161 31.3725
2.29865 9.96084 40.7899
2.91525 10.5379 34.1647
2.32579 9.23414 40.7726
2.95768 10.8034 38.5387
2.79868 10.6155 37.3195
2.5749 9.88599 37.1331
2.61249 8.97827 34.0636
2.62456 11.0153 43.0321
2.94429 13.2809 62.2713
4.25007 13.9931 38.1053
2.67137 9.86077 37.8873
2.63218 9.41476 39.2498
2.83929 10.2383 40.5706
2.88292 10.3983 35.4864
2.41324 8.89572 34.8165
2.40407 9.30485 37.1353
2.68092 9.03834 35.9359
2.55753 8.89712 33.6406
2.47407 9.77503 39.1023
2.84414 9.83807 32.3588
2.33769 8.80956 35.6695
2.58542 10.253 39.4683
2.77712 9.95667 39.5281
2.78516 9.06168 31.8899
2.29135 8.77512 36.4575
2.57301 9.06247 31.7959
2.25452 8.27044 30.7794
2.1924 9.88554 41.3081
2.82898 11.1573 46.8912
3.20763 10.5359 38.9
2.61004 8.38915 35.4481
2.58534 10.132 37.5932
2.50986 10.5788 39.8985
2.8065 10.098 39.009
2.56837 9.03044 39.8079
2.83705 9.60328 40.4339
3.00012 10.8425 36.9437
2.59974 10.8047 35.6256
2.45346 11.1384 41.1947
2.75628 9.83998 43.5365
2.91972 10.106 32.1172
2.22703 8.66236 39.4974
2.79366 10.1481 36.2045
2.38592 9.56992 36.433
2.50949 10.2785 41.9127
2.66667 8.78151 42.6682
3.06076 11.5043 42.2419
2.72471 9.73061 39.2189
2.75554 9.78283 38.5168
2.77009 9.53774 33.8758
2.37791 9.71642 38.3737
2.66401 9.37187 33.6327
2.32021 8.31129 30.9857
2.20438 9.49087 37.9246
2.53014 9.42066 35.5106
2.5048 10.4033 38.1864
2.52687 9.80654 40.0417
2.75001 10.8247 41.386
2.75645 10.5874 38.8191
2.54697 8.54706 32.0259
2.1786 9.28785 40.4583
2.7784 10.3295 40.3991
2.60403 9.75659 42.8766
3.05343 12.5821 42.0115
2.79106 10.1258 40.0721
2.66582 9.99782 35.2422
2.29197 9.05034 40.1929
2.6998 9.30423 37.955
2.65834 10.6029 40.5151
2.70638 9.15682 37.0012
2.57077 9.54232 34.8685
2.45911 9.5836 35.7621
2.36408 9.01144 36.702
2.37346 9.41012 38.5071
2.48982 10.1043 38.0124
2.45243 8.77422 33.5648
2.31046 9.68049 45.5025
3.12139 10.9879 42.894
2.87124 10.787 36.25
2.45355 10.8359 39.8279
2.58991 9.2174 38.726
2.58617 9.00006 41.2478
2.92257 10.8166 36.9562
2.44495 9.18562 36.9668
2.43689 9.82182 40.809
2.82742 9.50531 33.6194
2.32229 9.70827 41.0139
2.69553 10.6487 35.1762
2.37296 8.76113 36.2495
2.35204 8.91096 38.5756
2.46666 9.41464 39.1834
2.58707 9.32011 37.9162
2.60684 9.09643 38.8268
2.63213 9.41575 39.1416
2.63685 10.4715 38.4776
2.64754 9.0931 34.1152
2.33153 8.91881 34.7833
2.36902 8.66913 32.6716
2.23602 8.4899 32.9067
2.17762 8.55053 32.5212
2.30826 9.74021 37.1778
2.43976 9.13506 34.3607
2.30063 10.0343 41.8531
2.64971 8.61283 37.7803
2.47747 13.2136 73.3137
4.87693 13.8023 38.2695
2.58251 10.0938 35.4378
2.31953 9.46804 37.887
2.52358 9.68824 36.9058
2.46878 9.09934 41.2595
2.79778 10.9291 38.0817
2.52177 9.0167 35.7371
2.47793 9.59695 37.8148
2.57593 9.82335 38.6079
2.63586 9.00696 36.7066
2.49833 9.4334 36.0964
2.38416 9.08239 34.2603
2.26105 8.82369 36.989
2.51775 9.22593 31.2447
2.0624 8.22713 41.2878
2.83943 10.3267 40.6649
2.65219 9.99754 38.9208
2.58996 8.78935 32.1177
2.09854 8.43437 35.1503
2.34708 9.19866 35.1119
2.28197 10.6524 41.187
2.69031 9.38115 43.2398
2.93373 12.1266 37.3773
2.4557 9.43343 37.046
2.35278 8.68131 39.6078
2.62296 9.02382 36.0237
2.44484 9.36908 36.3325
2.43912 8.34852 32.1261
2.14283 9.94906 42.0717
2.74062 10.0496 39.8956
2.68813 10.0999 41.3546
2.81059 10.6134 35.8983
2.30969 8.89138 37.9321
2.40722 9.51606 38.1005
2.4956 9.73736 32.9991
2.07618 7.88688 32.098
2.17114 8.34275 36.5619
2.43562 9.23881 38.7791
2.55414 10.2811 35.6127
2.25664 7.81021 37.1756
2.44119 9.12323 35.2547
2.31563 9.59232 40.2288
2.7132 9.6447 37.2515
2.4089 7.99968 32.1053
2.04766 9.4217 35.6012
2.38363 7.57323 27.8744
1.88117 9.3605 37.147
2.38275 9.11587 40.1982
2.70305 11.3333 40.1923
2.63286 10.0048 37.9513
2.42147 8.78968 31.9423
2.06671 8.31611 37.5206
2.41599 8.78688 36.0666
2.52243 7.91911 38.3338
2.413 9.99959 37.7293
2.52272 10.3654 37.1834
2.39163 9.881 37.5581
2.42653 10.3873 40.9765
2.71764 9.92389 39.2092
2.57024 10.0051 37.7826
2.4415 9.64408 38.3467
2.4861 9.04255 39.5062
2.66698 11.1395 42.6458
2.70349 10.9928 43.8636
2.70603 9.00051 31.1647
2.08775 8.05594 38.2108
2.58091 9.79263 38.923
2.55839 9.31701 39.4518
2.57289 9.76854 41.2182
2.6404 10.6736 41.7487
2.66794 10.475 35.6844
2.29054 9.08664 39.3471
2.60391 10.0999 38.8873
2.5373 9.62013 39.8153
2.67219 9.1637 35.3146
2.37743 11.0162 42.7449
2.75419 11.0132 41.2655
2.62738 8.50493 39.5674
2.62567 10.3461 41.0423
2.65493 9.49966 36.4698
2.4216 9.09239 36.3669
2.3108 8.25265 38.9175
2.56104 9.53731 29.9827
1.91569 8.89224 40.2046
2.68562 9.22173 35.0082
2.29539 10.1952 36.162
2.44439 8.35991 30.9518
2.06252 9.50388 38.1248
2.41846 10.095 40.6443
2.76785 10.3326 44.9695
2.88229 9.15839 35.626
2.30411 8.85228 35.5276
2.28803 9.49686 38.8542
2.56547 10.5031 39.8864
2.67331 11.3323 43.8892
3.0201 13.1158 78.5043
5.00455 0 0