# pn-170911/RbIIR-51-TWTF-1280-1959.psd
# Power spectrum* (dif=0,1,2) (really just |FT|^2)
# NOTE: only the first half! (symmetric)
# weeks: 1280-1959
# 10 clock-days, 0 excluded
# PSD: 1441
187.87 0.0871051 0.0080665
12441.7 0.28554 0.0057822
49032.7 1.05553 0.00567886
17845.6 0.839787 0.00614615
67352.9 4.81132 0.00668542
5897.39 0.957441 0.00601884
3953.9 0.94078 0.00617326
4779.64 1.06389 0.0064242
3598.45 1.146 0.00539062
2823.5 1.13148 0.00598663
2128.78 1.09264 0.00653447
1403.15 0.888039 0.00638264
2266.16 1.27606 0.00705803
1706.11 1.38477 0.0083868
1529.03 1.12679 0.00858017
693.144 0.67448 0.0043417
1367.62 1.69052 0.00797346
673.112 0.945524 0.00810951
1302.67 1.76835 0.0107693
1283.98 1.90043 0.00695256
1125.83 2.16906 0.0121118
969.251 1.83727 0.00866007
1258.21 2.68932 0.0104721
774.616 1.97724 0.00943141
682.501 1.95899 0.0105743
663.419 1.27479 0.0117402
773.5 2.67554 0.0136592
684.29 2.00882 0.0110672
761.827 3.26091 0.018896
1151.59 4.9863 0.0313134
777.772 3.02904 0.0156812
980.408 4.97041 0.0230684
378.023 1.74671 0.0172447
465.582 2.38136 0.0133747
455.361 2.33841 0.0143205
330.013 1.88466 0.0123961
696.855 4.76763 0.0363242
404.659 3.13565 0.0176889
647.012 4.29788 0.0394841
1208.72 7.94855 0.048193
793.575 6.12165 0.0530105
505.239 3.8593 0.0443228
353.136 2.53891 0.0268612
1091.11 9.83739 0.0988068
732.639 6.49721 0.0661528
326.112 3.28755 0.047759
585.332 5.85937 0.0665606
1014.59 10.3711 0.100817
697.505 7.29501 0.0881265
733.825 8.6868 0.111612
447.732 6.02423 0.0720614
612.913 7.55221 0.0936937
284.832 3.74123 0.0573574
560.426 6.97705 0.0922737
472.299 6.73436 0.101056
581.173 7.97344 0.123726
649.767 9.06943 0.164297
473.105 7.33161 0.153343
585.806 10.3975 0.180106
324.956 5.56394 0.115606
416.915 6.51147 0.0877932
355.702 6.1373 0.12613
261.056 3.99697 0.0721209
864.319 15.6001 0.283177
277.91 5.57532 0.127811
448.06 8.94376 0.156952
680.533 13.9491 0.309629
359.756 7.48155 0.159383
391.988 7.72077 0.194769
318.07 7.96309 0.218898
479.358 11.832 0.281437
355.11 8.10434 0.194623
332.833 7.78328 0.198871
563.476 14.6409 0.348412
477.964 11.894 0.324355
421.887 11.3613 0.320259
244.426 6.56701 0.182615
363.119 9.44978 0.237742
272.99 7.92035 0.259204
544.119 16.7843 0.468384
527.95 16.1435 0.501842
414.597 13.4441 0.425223
346.831 11.1344 0.36311
316.698 10.838 0.34999
393.569 12.4133 0.382701
332.876 11.3646 0.40235
224.612 8.13682 0.319306
428.451 14.5752 0.548477
242.767 9.37531 0.321799
374.246 13.0182 0.497249
298.099 12.2379 0.462841
208.953 8.75605 0.354742
222.36 9.68605 0.394792
146.596 6.06866 0.270886
291.842 11.1342 0.432072
231.744 10.3187 0.432226
660.548 30.6446 1.43585
387.775 17.0933 0.717043
256.315 13.4568 0.695215
245.927 10.4973 0.443105
261.19 11.6918 0.574867
275.926 12.8335 0.635494
250.57 11.6421 0.583796
223.623 11.2808 0.636567
209.589 10.5813 0.526214
205.615 9.85911 0.481546
260.125 13.6678 0.71035
243.111 12.9924 0.691492
359.226 20.5331 1.16667
263.499 13.3656 0.697798
232.635 14.0096 0.817184
259.015 15.1542 0.913633
213.585 13.8659 0.839556
309.181 17.7859 1.12413
233.762 13.1409 0.733781
156.325 10.2985 0.602781
225.984 13.732 0.905094
227.274 14.768 0.994023
103.884 6.62062 0.418866
216.419 14.9928 1.03115
197.237 12.6343 0.903345
126.274 9.19071 0.632768
302.011 19.4336 1.24754
172.003 11.7572 0.854563
229.623 17.3921 1.32544
225.56 15.4882 1.162
178.936 13.5215 0.978482
120.286 9.85344 0.725326
93.5628 8.16313 0.674967
213.305 16.8435 1.32727
212.623 17.7564 1.47196
154.948 11.3804 0.834214
142.734 12.6608 1.04459
230.836 16.5425 1.38749
173.304 14.1862 1.21401
192.309 16.1899 1.46837
144.84 13.192 1.25817
147.356 12.964 1.10608
127.777 11.5748 1.00803
117.412 11.4089 1.12154
145.435 13.5592 1.23448
91.6386 8.50036 0.890293
209.638 19.292 1.72982
155.541 16.462 1.67212
156.556 16.6532 1.62695
111.42 10.4208 1.0699
101.69 10.1134 0.969344
141.811 14.4009 1.46764
168.437 16.7109 1.63959
149.638 17.2601 1.83743
132.198 13.6601 1.45411
131.377 15.467 1.85659
159.447 14.971 1.56263
134.141 14.0584 1.47452
141.182 16.2092 1.8789
72.8338 8.53644 1.02552
173.964 19.7174 2.33672
137.519 15.4158 1.73139
123.555 14.3774 1.81538
224.392 25.051 2.91232
80.6299 10.6989 1.37969
110.743 12.8671 1.582
157.3 19.198 2.40061
77.3595 9.5839 1.20417
162.256 19.9934 2.4532
90.2709 9.58348 1.08315
131.648 16.5656 2.08662
126.701 16.6002 2.37416
206.879 28.6349 3.96991
83.4666 10.8411 1.55055
138.218 19.7403 2.68741
92.9752 10.8593 1.40324
120.983 15.885 2.18367
104.969 14.6822 1.91117
165.016 23.4814 3.34215
84.7224 11.818 1.55877
147.167 20.2579 2.86072
86.5167 14.5467 2.26418
140.921 20.4362 2.91189
71.511 10.5768 1.56647
109.721 14.7917 2.14324
58.093 9.22793 1.53694
114.905 17.2377 2.41811
282.196 42.779 6.5844
69.4183 12.7951 2.32298
67.087 10.9002 1.78221
109.92 19.2951 3.28085
106.215 14.8518 2.14059
78.408 13.381 2.29928
67.6906 11.5742 1.79402
73.8262 14.7068 2.71063
115.835 19.1501 3.22657
93.1234 16.6082 2.89054
77.96 13.7541 2.47152
73.2408 11.0359 1.79378
54.8673 9.95684 1.77704
77.9335 13.4036 2.40678
53.3971 10.7919 2.08297
102.571 19.5606 3.80959
59.8831 11.414 2.36541
114.623 19.7338 3.64107
158.075 26.7321 4.66613
69.9558 13.1013 2.71739
51.2935 10.3803 2.13568
148.233 26.5266 5.27189
75.4447 12.4054 2.21189
158.436 33.0272 6.93476
102.891 18.7449 3.36418
85.3119 16.7453 3.3211
49.8965 10.0876 2.01597
148.903 29.7141 5.93461
51.9149 10.5238 2.21539
73.4011 15.4972 3.29077
65.1312 12.3061 2.66972
68.1598 15.6959 3.49153
67.621 13.5785 2.75799
50.8428 11.9671 2.96853
134.66 28.3773 6.0847
44.5534 10.9614 2.62059
106.095 23.5521 5.22771
82.1224 19.1551 4.42913
50.6246 11.1699 2.43749
72.6138 15.0468 3.12279
68.7537 16.8842 3.88657
32.4294 7.3604 1.86061
57.7656 12.6815 2.54208
61.2492 16.4106 4.11936
47.7527 10.5597 2.47782
66.3394 15.2077 3.37508
50.5415 13.3127 3.36899
53.9105 13.7943 3.75437
88.241 22.1236 5.53656
71.6668 17.9485 4.42676
49.9493 10.364 2.50961
69.8974 17.8858 4.35615
29.9172 7.27277 1.81996
38.3812 10.9129 2.9123
32.4022 7.32371 1.75167
67.3335 16.7726 4.45079
42.2597 12.1373 3.55745
41.4525 10.6368 2.70474
50.0111 11.1191 2.51345
60.6542 16.5363 4.46474
78.8823 23.4129 6.54987
42.0919 11.7715 3.61701
65.5452 16.5764 4.29333
42.3324 12.8075 3.54766
43.4444 13.3395 3.92368
72.2215 21.9994 6.53659
36.9795 9.66363 2.82216
50.0822 14.0629 3.93621
48.577 13.7149 4.10604
49.5513 15.186 4.85331
85.24 25.2323 7.30095
37.8673 11.3443 3.79474
49.772 13.5787 3.96738
92.9117 29.0515 8.37872
31.9138 11.007 3.79926
40.1383 12.4996 4.07351
72.4937 22.0673 7.17543
74.115 21.6662 6.35445
68.8007 21.5745 6.44851
48.2078 14.7375 4.51435
59.7334 19.795 6.62198
72.7334 21.7539 6.63302
31.7 10.6869 3.75203
39.8375 12.353 4.06905
34.3312 10.5161 3.36566
51.3414 16.7812 5.76283
51.2642 20.7454 7.83144
85.902 26.3903 7.81892
74.6219 23.3049 7.44088
45.4229 16.2282 5.32092
38.4066 14.2342 5.17681
71.2464 24.9857 9.43386
44.8736 14.0566 4.11993
33.9146 10.808 3.94253
42.1775 16.2192 5.90305
70.5392 25.8474 9.61724
75.5604 23.6211 7.13764
52.5857 20.3067 7.78946
53.0905 19.849 7.10532
50.0269 18.7228 6.58378
37.5727 12.0389 4.01267
63.6758 26.5794 9.98487
48.4011 19.8647 7.77993
56.3081 19.0762 6.60269
56.7886 23.4763 9.04842
59.5031 23.6645 9.56603
43.0845 17.0683 6.81586
37.972 15.8057 7.19596
62.1226 21.0784 7.35276
67.1909 25.9762 10.0747
52.2026 21.7099 9.31871
49.1571 18.5899 6.9825
38.1576 15.6859 6.40894
23.585 8.74546 3.98612
53.5247 21.5425 8.72071
23.7486 10.878 4.65919
40.1336 16.4048 6.48114
22.9028 8.59766 3.67219
58.4311 24.1241 9.36833
39.7899 18.8089 8.12448
42.0587 15.3048 5.66476
38.3122 19.2464 9.86114
76.493 31.3338 12.2681
25.9805 11.889 5.8556
60.5142 26.8545 11.7764
42.832 17.8444 7.54946
44.0562 21.1325 9.33811
20.4402 10.2478 5.2613
24.7872 11.8706 6.01113
44.5479 16.8808 6.75955
48.0393 24.0763 11.8425
39.7842 12.5848 4.17441
57.1832 27.1747 13.4247
31.8886 14.3724 7.07848
49.3428 19.4157 7.88103
53.9644 24.766 10.6549
19.9864 11.9537 7.35705
65.2374 27.5158 11.6009
46.0033 19.6624 8.6727
50.5766 27.8594 14.2456
36.9821 16.2624 7.46765
27.0225 12.8391 6.47564
44.0367 17.6784 7.35613
25.2359 11.295 5.30981
34.0015 17.4982 9.19648
24.3832 11.9547 6.71166
37.5797 17.4391 8.62997
41.5251 21.9238 10.906
35.2302 16.2842 8.34277
58.7735 27.3154 12.4603
41.8202 21.1176 9.8651
34.6456 20.563 12.7011
43.4896 18.2237 7.59956
26.9343 15.3139 8.4406
40.7357 21.752 11.5067
38.9555 16.869 7.42211
25.1565 14.1581 7.50768
43.0926 23.1972 11.951
34.9754 19.7141 11.5976
43.4167 19.5801 9.3593
32.3639 17.2663 9.55807
37.0032 17.9251 8.78275
37.0316 21.8031 12.7204
48.2252 24.7076 12.4883
21.4012 13.3686 8.21518
28.4628 13.8742 6.91509
30.7657 18.3794 10.7065
31.6299 14.6404 6.71425
18.1692 10.4777 5.93359
27.0202 17.726 11.6815
57.7593 31.6206 17.0262
28.6347 16.8063 10.0262
42.6149 24.7137 13.9145
33.5819 19.1715 11.3728
37.2063 20.6069 12.654
40.2333 17.7882 8.423
38.7169 23.573 12.9165
30.2268 16.9487 10.1144
30.256 15.8088 8.15936
42.1173 26.8608 16.6856
19.6885 10.8366 6.48664
41.7989 26.6719 16.62
20.6767 10.5526 5.79225
30.3738 18.5311 11.2075
32.373 15.6281 7.49255
21.4892 16.6653 12.2287
34.3817 17.7542 9.1727
17.9594 11.5252 7.56016
25.9365 16.4358 11.4181
36.0323 20.6927 11.2698
40.0533 29.5448 21.2973
32.9554 17.4726 10.0956
38.1929 20.3322 10.7269
38.8641 26.2184 17.0789
17.2188 10.9466 7.66991
15.7998 8.74626 4.84589
28.574 18.0024 11.1197
21.2774 12.4953 7.86915
34.6206 26.0492 17.6
21.6049 12.3232 7.22006
22.0196 16.5658 12.06
32.4215 21.5422 14.7772
31.1578 24.3083 18.5712
33.0131 17.1494 9.18989
18.3402 13.2182 9.19095
32.9303 23.7551 16.1149
19.4458 13.868 11.8725
49.7078 30.7046 18.5186
29.0515 17.6006 10.6746
28.4867 23.0026 17.7116
17.3024 12.3246 9.73448
32.6297 22.2751 15.2311
21.3744 12.9191 8.76358
28.2823 19.2042 12.8002
29.8532 21.7608 17.1111
47.8804 34.4067 22.2601
43.5641 36.6872 29.0069
28.279 15.6765 10.035
34.1539 24.1371 18.2325
41.3536 25.9409 15.6219
22.1601 17.3583 13.9055
21.4992 16.2802 12.3629
19.4313 13.8176 10.8132
36.1811 25.3107 15.772
17.3648 14.8537 13.2787
20.3133 14.6563 10.8441
26.8462 19.8425 14.0256
19.0263 14.2928 10.8857
20.0792 15.2731 10.6395
23.6395 19.7257 15.4895
17.3967 15.7533 14.3335
20.0129 14.1717 12.8124
46.7654 32.8999 21.3868
26.4483 17.8249 13.5577
20.0881 12.5061 9.47731
47.2444 35.1115 23.2967
31.8691 28.1679 23.4707
18.9191 12.4632 9.09235
28.8485 23.1245 18.5081
46.6318 37.5814 29.7557
30.6305 21.6144 14.9909
33.6423 32.0927 27.7025
26.9032 19.8073 17.328
26.3887 20.1166 14.5913
12.5961 9.98583 8.54965
13.8155 12.849 12.8901
30.3752 23.7171 19.2043
21.3382 15.9589 11.8699
29.4257 27.4613 24.0565
31.7988 24.1041 18.151
18.4581 14.3687 12.3545
34.5094 29.7594 24.2552
15.2834 10.7993 7.88501
13.5383 12.8102 12.8407
16.6048 16.552 17.6832
26.1537 20.7066 18.305
31.6748 21.5271 15.0098
25.1088 17.682 12.0277
26.133 24.648 22.2739
31.928 30.0132 27.3381
26.9791 18.7975 13.9186
38.1633 32.3674 26.1463
24.467 20.7302 18.3817
19.6416 18.3816 16.5762
17.077 17.354 19.3321
37.0193 26.5482 17.6658
30.3962 29.9705 28.023
17.1831 14.3861 13.7212
18.627 14.2625 10.6181
23.9874 24.2121 21.7966
17.1854 14.1712 12.9642
33.5261 28.9407 21.4573
13.0293 16.2077 17.9429
21.6921 18.6034 14.6869
15.4721 17.4532 18.2005
16.7491 16.8031 18.6463
17.6413 14.3633 12.1121
16.5722 14.8588 13.7377
19.4577 19.0229 18.0042
19.3041 16.3301 12.9054
14.0446 17.3669 20.4479
16.1951 13.4486 12.7925
13.9671 13.5806 15.2233
39.598 34.916 27.6798
15.996 18.2207 17.4703
13.8177 14.6982 16.6969
16.7305 12.685 10.8987
18.9625 23.7554 27.1228
18.9119 14.4689 15.7685
32.2193 28.3711 23.4803
16.9168 13.3313 9.89464
16.3653 17.9291 18.6136
18.3249 20.5116 21.7065
13.1951 12.0083 14.1644
27.8742 23.708 19.218
16.8577 15.4897 13.7913
17.5945 23.0254 26.4449
15.1583 13.0077 12.9978
24.9248 23.3146 20.5489
18.5611 20.9451 23.9168
31.4781 29.9473 26.3736
17.9844 19.6973 21.0011
11.5204 11.7193 14.8657
21.177 18.6242 15.9661
14.5865 14.8827 15.6091
21.8664 21.7138 20.3439
9.9855 11.2026 13.5324
17.2069 17.9175 17.957
13.6635 18.4079 25.11
27.2565 25.5409 24.666
12.9234 12.7066 13.9178
20.1272 22.8042 24.4942
28.1891 30.8429 32.6338
18.9827 18.3793 19.7065
31.0704 30.4269 27.098
16.5119 20.7265 23.3402
13.5622 16.9829 21.8052
13.6386 14.1906 20.7717
22.4982 19.1951 16.8476
20.3421 20.8301 17.7267
3.85264 5.44124 8.98917
14.9899 16.8635 16.9032
13.8666 16.487 20.146
12.2354 9.15014 10.4337
25.1806 26.5804 26.1327
19.4747 20.665 18.8726
10.298 15.3649 19.322
14.4305 17.1404 21.6554
11.2264 11.8935 14.6857
17.0925 16.701 18.5201
16.0266 17.1072 19.5552
19.2959 20.7691 19.2703
11.6452 14.256 17.7406
13.4528 13.9157 13.7652
13.8057 19.1269 25.8867
19.165 21.4983 21.272
11.0416 18.6041 29.3762
22.1666 18.1716 14.963
16.6399 20.831 23.1419
11.0983 15.14 20.7433
20.2999 21.6864 21.7922
12.0005 13.75 16.984
15.534 19.4014 21.23
16.6319 22.8789 30.6552
21.2347 21.8468 24.4623
11.3164 12.1098 13.7715
24.4258 32.1992 35.4075
11.3925 15.027 23.2767
15.3373 16.5602 19.8296
16.4157 19.3954 22.9624
13.0849 13.2389 16.4389
19.0997 23.7432 27.7824
20.7915 23.8846 24.8395
7.58499 10.288 14.3465
13.052 19.2842 28.1016
26.6757 29.5168 29.3796
9.17495 15.1852 24.9372
10.0298 8.21531 8.53905
12.0792 18.3174 27.8058
19.6224 21.4825 22.7579
11.0715 14.2119 17.5776
6.67261 9.82534 19.4462
11.9498 6.82294 5.74258
14.6165 15.7219 16.3615
14.5187 18.1276 22.6272
10.3758 9.35206 10.2715
14.9164 14.3591 13.2153
20.4335 28.4636 33.1714
8.52852 12.8734 20.0114
9.93018 14.1445 22.399
18.5032 23.6604 28.7332
12.5364 15.2 19.6392
15.9366 23.2798 31.8223
11.5827 15.3964 23.5657
9.21502 8.95059 11.9975
8.37192 9.14296 13.0383
16.8059 17.3962 17.1072
19.6522 27.8055 34.9558
22.3516 28.9031 32.4287
6.72372 8.68308 13.3487
11.7459 15.5564 19.3958
7.50318 9.26507 11.8428
11.0347 21.725 38.6584
18.0792 17.7933 17.9448
10.1265 16.892 26.2384
15.1528 21.9466 29.4303
8.38286 11.1797 22.6438
18.8207 19.96 18.4693
11.2809 16.451 21.6255
12.9285 19.9321 25.4155
4.66298 7.03101 13.4015
10.1926 14.4381 19.8827
9.97417 12.0315 16.6739
16.1374 22.3969 26.8034
10.5448 19.2984 34.6967
10.9351 9.52311 12.8445
21.4524 29.6002 34.7022
12.1611 16.9642 23.3632
11.9861 20.4469 30.0574
10.775 15.1414 23.6004
8.72863 9.90475 13.8514
10.954 15.3707 17.9329
10.5246 17.0276 27.3928
10.443 17.5063 28.3298
10.627 13.8189 23.8002
12.727 14.0192 15.6118
6.21464 7.6891 10.7837
10.3076 15.1805 20.1126
11.4261 17.9414 23.3776
8.33554 10.8308 16.4349
13.4727 20.2774 26.341
12.2957 17.8603 22.3176
9.39845 18.7761 30.6483
9.80576 12.1951 17.744
8.43868 13.1377 19.3013
6.91114 10.5279 18.4227
12.2395 19.0913 25.7345
7.85537 12.6964 18.1035
5.33731 9.41588 20.6486
11.9683 15.7508 22.8108
15.7247 23.9626 33.4357
8.19717 11.3183 15.5476
3.84771 6.38833 12.8128
7.08672 10.3174 17.833
11.976 20.3111 33.7037
8.5253 12.1192 20.6821
11.3285 14.6746 18.6834
11.5982 18.4525 25.8754
5.58703 8.89096 16.3314
10.5805 15.6605 24.0122
7.57232 11.8961 25.0456
21.8028 29.6948 33.2298
8.78632 17.1604 32.1898
14.5773 18.7876 23.2507
10.1112 15.1071 21.8491
7.88643 12.96 19.3339
5.85767 10.3383 17.9541
10.7459 16.8834 25.6715
8.70417 14.9653 25.9055
8.81804 13.3057 20.4719
10.5971 22.2909 37.178
7.20776 12.3204 30.1969
16.9501 23.0394 30.1313
10.1227 14.3806 18.7148
6.19648 10.6816 18.8617
5.31825 10.0187 19.0463
9.49574 15.4656 25.8902
11.8078 19.0628 31.3371
7.73257 10.3434 18.6266
9.23314 13.8001 18.8182
8.33263 13.6831 23.3744
12.1313 18.719 28.3293
5.86246 11.1196 21.0179
8.90609 18.866 35.5449
9.45315 12.0322 18.2587
5.92154 8.60026 16.6976
8.53392 12.3341 21.6219
8.60779 11.3704 18.436
11.0722 18.109 29.1667
12.2116 20.7759 33.2655
9.97336 14.5604 23.4623
7.46411 8.92281 11.4752
4.8073 9.7596 19.5434
7.40138 11.5755 21.1278
7.45068 12.9884 28.4909
15.3453 22.2139 29.0207
6.32488 9.23585 12.7773
8.45222 20.8127 41.7103
10.6049 16.8004 36.5467
18.0645 23.9336 26.77
10.4258 18.0033 25.0153
4.3813 8.67285 16.0126
5.42686 12.2336 24.9063
10.2333 18.4573 31.5826
8.88058 16.9369 31.5592
12.9489 23.3707 41.3062
8.36931 12.4668 23.1372
7.93786 14.2081 26.8032
6.58342 10.5786 23.8035
13.2791 18.3498 24.6447
8.45445 16.9266 27.8571
7.29474 11.1371 17.545
7.12287 16.6009 35.3039
8.84138 11.8632 19.6411
8.21064 12.9801 17.7523
6.20858 12.7151 24.4144
8.25423 13.3373 18.4161
5.25869 12.4377 27.9326
11.8796 23.2394 42.1153
9.30098 13.692 26.1506
10.6057 16.1257 26.0356
12.2333 19.8898 26.1928
6.66684 16.5133 34.8993
7.27168 14.1935 32.1294
10.7636 17.7002 31.2883
8.86475 15.4219 28.5058
9.94541 14.0591 21.4284
7.54581 15.6112 27.7349
5.67909 7.85037 13.8797
7.68488 13.0507 17.397
4.93747 11.6094 22.9748
7.19055 12.5938 21.5956
9.54689 21.4625 35.1885
5.60884 11.8861 27.8987
7.44854 10.4404 17.3376
6.31041 11.0638 15.3038
4.96274 11.3432 18.3377
4.09089 13.4086 33.8361
8.57132 17.7581 47.4964
14.3961 19.0636 26.4596
7.54788 12.0483 19.805
8.61222 16.424 29.5054
10.8515 23.1626 38.412
5.85099 9.60291 18.104
4.81224 9.23165 18.791
9.29666 20.9891 37.9241
6.31408 10.8197 23.0543
6.94411 16.4167 37.2897
10.3148 15.902 29.1646
8.56171 15.1608 28.5058
5.34351 6.98339 15.0791
11.6441 20.4611 27.4341
5.47125 13.2205 26.8084
11.0958 23.8429 39.1113
5.71521 12.9553 26.112
4.33324 9.67931 21.4666
5.66921 11.578 25.7009
8.59354 22.103 52.0014
11.9331 16.3383 23.4384
7.43159 15.1408 28.1798
5.84478 12.7271 27.0651
6.81044 15.5589 35.7695
9.05486 17.0622 38.2085
9.20416 11.6404 14.6403
8.25296 19.5984 35.7159
7.46087 18.9463 41.8802
8.47711 14.2499 25.118
6.63369 15.6972 31.3008
6.03737 9.58764 21.0862
7.8858 16.9674 27.4739
5.8943 19.4013 48.2303
8.22099 10.4593 21.4309
6.04709 13.5444 33.4714
8.95518 16.8719 39.7645
13.4378 23.3839 35.831
6.24233 13.1409 24.7326
2.09303 6.41161 26.4713
7.16297 12.2217 24.065
6.35311 11.2478 22.1729
10.0246 25.2433 51.8555
9.07891 15.1204 27.0286
7.9189 17.2619 32.1438
4.08149 7.23447 14.5994
3.34006 6.86568 14.3919
4.04509 10.8051 26.3217
5.3167 8.80332 17.5321
6.71051 17.2489 35.9213
4.21262 4.40464 8.26983
4.22738 10.555 24.9914
5.16064 9.04031 19.0801
7.07422 12.8322 20.8809
4.23044 10.7184 21.1315
3.27794 10.2226 32.0839
9.32247 17.2488 35.9256
8.44614 15.2566 31.9994
8.56602 16.6698 30.3134
7.24823 14.9686 23.3087
3.71815 9.75404 24.007
8.20216 17.5808 36.0615
8.54511 21.3655 45.6837
9.19521 20.6201 44.8561
6.39775 10.0653 17.2965
4.79456 11.8106 26.702
6.92325 14.7626 26.1003
5.94387 21.0576 57.5119
10.24 18.384 36.3354
5.88904 10.5947 23.4606
5.42519 11.1323 23.2467
8.59857 21.2303 40.8147
3.23925 3.53289 11.1718
4.67991 12.5837 35.6961
9.77975 19.2727 32.1811
4.36978 11.0917 22.2577
2.945 6.11737 16.6577
3.64776 11.0129 35.6733
8.00719 12.0049 17.9815
3.60756 8.54976 25.8444
10.1922 20.3558 31.2078
5.39934 17.8684 41.1388
3.96569 7.78819 28.0708
7.1863 8.75039 10.5761
6.67631 20.9951 52.444
9.44244 14.8054 23.9457
7.42567 20.2139 43.1413
8.20022 22.6439 52.1971
5.76868 10.3008 26.6174
5.84087 14.8288 33.829
6.40934 12.7224 26.1446
5.03644 15.6213 44.2865
7.53075 13.8678 35.4055
9.67798 18.8777 25.6799
2.37722 6.82163 18.9664
4.9715 13.0535 27.0615
3.82245 11.2688 35.6521
6.35704 13.8879 38.9265
7.87913 13.7202 24.9514
6.76312 15.6066 26.231
5.91839 18.3707 39.6635
3.7108 8.11129 22.2083
4.42838 9.97814 21.3973
3.20819 7.90333 24.169
7.09886 19.2028 46.1462
7.18873 12.5135 26.1216
5.22177 12.0012 28.2211
4.90281 11.8317 37.217
9.61032 20.4637 43.458
6.88978 12.965 23.9909
4.62188 11.6546 26.3431
5.68938 13.8119 27.6479
3.34385 9.23783 27.1846
5.21974 10.7309 19.9352
4.51567 11.422 26.6597
5.70037 16.9569 47.3537
9.57825 17.2545 24.7237
3.07497 10.9659 30.3553
6.12377 15.9992 41.6183
5.63503 10.8065 19.6286
2.64105 5.90857 16.1881
4.34112 11.0057 25.074
5.60202 21.4437 60.9315
7.24589 9.88045 19.0538
4.19779 11.1926 31.1755
6.09536 14.3144 33.8313
6.58747 16.3738 40.948
7.62001 17.6372 38.9
4.28387 7.07677 14.7242
4.45071 14.1645 36.3638
6.28168 13.4795 30.5637
7.00286 20.0218 50.5914
6.75204 12.1777 18.8899
2.8757 8.44172 23.7846
5.84115 19.3862 39.2445
3.43161 13.8594 50.571
8.40818 15.9312 31.7216
3.14827 9.09626 32.661
3.79018 9.68836 38.2381
6.9389 14.896 47.3383
8.45459 14.4527 19.5022
4.10362 12.9511 28.7587
4.49977 12.774 41.7004
6.19093 12.4233 28.9827
5.3909 9.82283 13.1556
2.14893 6.77594 14.2074
1.61296 5.53942 20.7788
5.40484 14.3769 29.9231
4.12366 11.627 26.0759
3.80612 13.6728 39.8187
4.13535 4.53339 15.2386
4.13138 9.74716 24.6004
6.19455 16.0665 29.5349
3.93636 16.0098 50.2558
5.81396 10.1818 19.8881
3.18029 12.9313 46.7033
7.48159 13.4545 30.6323
6.64499 19.3214 45.0601
4.32737 6.52406 15.5619
4.22588 10.3788 18.7077
1.5352 7.01988 26.9362
3.61299 5.87453 21.2997
5.48833 14.0796 28.8939
3.11588 8.37148 29.6891
4.18332 7.60652 23.0455
6.47688 18.1703 43.4169
5.85727 15.0732 43.1044
8.54341 20.2987 35.0173
4.09648 14.1113 41.8581
5.42159 8.96389 22.8124
4.80674 11.3184 26.9489
5.45747 18.8751 53.1225
6.5523 16.1564 40.2938
3.35631 6.12359 24.9717
7.07535 16.8518 29.7582
2.9459 8.10304 24.8264
4.44476 14.1378 36.5153
4.08615 9.26734 27.1396
5.11926 16.4253 47.8513
3.56472 7.081 39.7695
9.31948 21.5053 39.8141
4.89081 11.392 33.7867
7.06624 17.3713 31.9917
3.13625 9.4734 25.2155
3.10647 7.94208 18.0125
1.74837 6.14175 24.6644
4.34316 11.6233 30.7607
3.32971 6.91579 14.4236
2.71848 8.74774 24.9556
3.38176 9.31226 22.9654
3.13724 12.0748 45.64
5.24389 8.66211 23.9187
4.99416 13.2722 25.5257
4.18963 15.2794 42.1229
4.53954 10.9251 33.3732
5.4802 14.4622 39.6076
5.82183 14.4057 30.4456
4.01335 10.223 24.2478
3.89995 15.793 46.9146
6.16535 17.5032 53.6835
5.83712 12.3403 35.4461
5.53096 14.0289 37.3084
4.76453 14.1682 43.1284
7.61412 22.3548 48.7183
3.80123 6.20581 13.8484
2.95372 11.1857 31.7401
4.59568 16.8136 50.8566
4.00894 6.43833 20.605
3.3603 8.42978 22.459
2.53066 5.51635 19.0491
3.83701 10.6696 21.1181
2.65356 7.93979 23.8922
3.1087 9.73009 24.5877
1.96774 5.68838 26.7699
4.627 13.2936 31.2337
2.91983 5.03391 11.5143
2.41405 10.1943 35.4883
4.8297 10.1898 23.838
3.86466 10.4803 20.0393
2.5106 11.9234 47.1462
5.7694 12.8531 31.5482
4.48714 12.0932 25.8063
2.62777 8.64854 24.3116
2.62323 9.81842 34.4481
3.58636 7.10577 26.0385
5.36497 19.7531 49.9397
4.43005 8.33952 25.1969
3.42845 10.2302 32.641
3.90738 9.86034 31.6627
5.1658 17.4199 37.9605
2.56508 9.37742 49.7535
7.3921 14.3229 26.7245
2.64746 7.19609 29.6592
5.20425 11.8437 28.7098
4.39018 12.5903 34.2201
3.15806 8.3222 16.8053
1.76019 8.52065 32.0893
3.28673 6.51943 26.0842
4.74676 13.5754 38.0721
3.71012 7.43158 27.7816
4.3331 8.19396 16.7589
3.40611 13.6607 41.0388
4.55434 9.5274 24.7478
4.6109 15.9692 36.9587
3.98113 14.6463 45.296
5.07088 12.6777 41.187
5.43964 10.8925 21.3828
4.09241 15.6772 37.5295
3.30054 9.83087 26.687
2.17377 8.39784 36.1577
4.25679 10.2528 31.7015
3.78274 8.48888 25.5563
3.95403 11.98 27.6109
3.26448 9.57125 24.8048
5.14736 21.5543 46.5238
2.91605 10.4709 33.302
2.28155 10.4473 61.2867
7.34268 16.0976 44.6456
5.57974 13.0819 26.9902
3.26078 12.1672 35.1821
3.92229 12.7726 41.1962
3.31338 9.19035 37.6992
3.9522 7.60391 33.1528
5.48021 16.2567 33.2019
4.05287 12.5373 26.2654
1.59155 5.46961 23.9086
2.35675 6.61871 26.0307
3.32903 10.0223 37.335
4.36005 10.5519 21.0601
1.57328 4.77921 29.9456
5.59438 13.2963 24.7334
2.9087 14.1702 40.5098
2.4669 6.02414 35.7766
4.72412 12.7327 34.9789
2.78643 2.66687 20.3214
5.13426 14.5258 34.4511
4.93136 15.8444 32.9543
2.11515 6.22102 23.5709
3.69757 14.0806 41.1149
3.71149 10.7848 43.0546
5.60319 14.2808 24.5237
2.4725 13.4007 39.4336
2.63475 6.83453 36.8669
4.93609 10.0256 23.3165
3.11453 10.471 33.649
4.42296 12.5127 34.7273
3.91719 12.0587 29.1077
1.73412 6.2179 31.1497
4.03195 10.7237 26.5133
2.87033 10.914 34.7467
3.51486 11.7837 43.2118
4.11851 7.57411 13.2978
2.54159 12.4441 42.6723
4.47714 12.0472 28.2258
2.21911 5.23142 25.2026
4.0745 13.8811 28.0542
1.75467 7.45044 32.0808
3.81128 13.1615 41.4893
2.66224 6.77733 35.2644
3.4935 6.61029 17.9427
2.7986 11.0701 29.3276
2.65665 9.32493 24.4384
1.87776 7.97091 38.3566
4.42651 10.7677 27.618
2.0818 7.80725 43.3468
5.22106 11.6008 33.1317
3.90263 9.64954 23.348
3.41515 13.2571 31.14
2.13299 8.06632 36.3182
3.69818 7.28695 16.5536
2.99886 13.2785 39.721
3.29267 8.68446 33.6471
3.48723 6.03294 10.0606
2.52263 12.307 25.2086
1.92283 10.0991 31.0303
2.94358 17.4644 80.6072
6.44493 8.13332 22.3726
3.22922 8.14471 19.0857
2.35594 9.10745 29.279
3.22389 8.78234 23.009
2.55395 8.21089 21.7424
1.70225 8.96224 44.3401
3.75582 5.54886 21.3934
3.99598 13.6064 29.3098
2.3854 8.35109 34.0399
3.55849 9.17187 23.1607
2.05099 9.0091 34.9592
4.19055 17.3374 51.9943
3.57031 10.1367 41.5507
3.94143 7.80852 30.5821
3.33861 5.93081 14.0758
2.4632 9.43106 25.8417
1.92688 4.79366 20.2751
2.37331 6.04776 32.1867
5.49868 17.3288 31.1504
2.18429 6.56787 17.4304
2.58655 15.4612 46.1104
2.9443 8.17075 24.0567
1.87701 9.22803 45.2464
4.34835 9.86011 33.2484
3.97269 14.7342 35.0057
1.95632 5.15728 22.7184
2.84036 11.975 45.2172
3.49874 8.914 29.1578
2.63876 7.75413 22.1748
2.15232 7.06521 22.7517
1.81735 5.45117 27.916
3.42675 9.5946 29.6185
3.09052 10.4818 32.4172
3.28181 11.8192 34.8287
2.95861 9.49891 34.1351
3.47914 11.7591 34.7568
2.901 8.87746 37.6163
4.25772 12.1577 32.7893
3.43338 14.1914 37.8319
2.15919 5.93196 35.8779
3.65638 8.4945 22.6758
2.96776 10.0004 23.6543
1.7152 5.68339 25.6758
3.38406 13.0442 32.2386
2.82606 12.1635 42.5567
2.88174 5.38023 13.5858
1.34104 7.70342 32.3676
2.21581 6.66258 33.027
3.23019 8.82902 27.0816
2.70896 9.52281 35.4935
3.33325 11.3135 26.8265
2.05813 9.81455 46.5031
4.34306 8.96348 10.108
1.40518 12.532 41.1856
2.56233 8.79931 54.6456
5.22918 13.0791 40.4656
3.88998 9.61509 23.574
2.23392 8.86526 27.8785
2.86361 10.8804 37.1342
3.48861 11.7374 31.42
2.24144 8.46258 34.9322
2.99244 10.9894 55.122
5.54686 12.6576 24.0306
1.71569 5.26809 22.829
2.86714 11.3557 34.9074
2.81918 8.37299 28.195
2.30668 5.74626 31.1647
4.17706 15.552 31.865
1.92091 9.70862 54.1661
4.63211 9.23891 12.322
1.54924 9.81199 26.8796
1.62586 7.97179 41.065
3.4114 5.9698 20.2305
2.77602 10.4893 22.6091
1.59608 8.7571 42.1896
3.40669 7.41649 26.0941
3.04488 11.1305 36.9885
2.91647 8.21799 28.4351
2.91897 7.90181 17.6137
1.50953 5.96235 24.4438
2.17962 7.56797 25.7207
2.82837 12.7506 43.3088
3.44965 11.5016 32.0527
2.1027 7.51104 29.111
2.51215 6.35774 20.6937
1.89746 10.8947 47.8537
3.57192 8.64721 30.3441
2.71381 6.48209 12.1105
1.57605 10.6028 35.3135
2.98951 15.8754 61.9529
4.57036 8.73712 23.7944
2.21229 7.1076 28.5379
2.51025 6.65341 22.862
2.27033 7.6471 25.6584
3.02064 13.3606 45.9559
3.12221 14.4143 58.2349
3.73542 5.79952 22.0723
2.43475 7.75735 27.9491
2.52769 11.4106 37.7148
2.82994 8.20854 28.7446
2.37383 6.29088 13.846
1.16136 5.05943 23.3142
2.25881 7.44221 31.0426
2.71197 6.80477 18.0321
1.63097 6.91592 32.7901
2.73195 7.07115 18.7934
1.7577 7.72541 38.1612
4.23165 14.7787 29.9846
2.04808 8.69333 41.2651
3.08263 13.1688 53.0004
3.89164 10.2331 28.5605
2.20851 9.82653 34.2149
2.82547 8.96318 24.9413
1.83169 5.55738 39.6026
4.25134 17.8165 46.1698
2.90453 10.6515 36.6028
2.66281 8.74352 43.0661
3.67859 9.40508 30.4591
3.27756 12.9069 31.4894
1.53171 4.02559 18.2839
1.30132 4.87767 40.475
3.90441 10.6955 18.4033
1.69093 10.1354 37.5236
2.35439 6.4632 29.7919
2.57716 6.19842 23.8291
2.41663 8.5712 24.8574
1.80024 6.65873 27.7058
2.15643 7.36073 30.589
2.74004 12.3995 58.9376
4.65691 11.3389 21.9207
2.10341 13.0702 31.2482
1.52491 5.83716 30.5063
2.08963 5.55711 37.5548
3.51676 8.51966 20.4498
1.97966 7.85685 21.2004
1.3629 9.90039 50.7568
4.06262 11.5416 36.1292
2.42416 7.09999 30.2649
2.57446 8.96476 25.8536
1.91825 6.34935 27.437
2.31272 7.41438 31.0005
2.9823 7.72289 22.8404
1.92635 5.59655 17.6755
1.83715 7.99323 28.7839
2.5451 8.55014 21.4677
2.24831 16.0205 43.1213
2.27788 7.24552 39.4542
3.48299 14.2115 39.5537
2.15102 4.7107 27.1782
2.14281 6.7879 28.5894
2.7122 9.58119 43.0339
3.81308 15.6211 47.6119
3.29594 10.3954 31.9042
2.42556 6.08019 16.2129
1.38211 8.37899 42.0664
3.1509 11.4251 36.881
2.32595 6.78081 25.395
2.27923 9.87546 29.2858
1.99884 6.50032 34.4645
3.03333 7.63133 21.8717
1.72151 7.75657 19.6717
1.24889 4.87715 33.2058
3.14157 11.0304 39.0547
2.97237 10.1894 23.7566
1.68522 9.80505 40.5477
2.65409 4.98692 21.8217
1.95219 8.00876 29.4543
2.34191 10.1504 37.4725
2.39299 6.81182 17.3035
1.46401 7.92001 26.6124
1.68252 5.55676 25.4998
1.96126 7.49452 35.9559
2.29381 5.19825 21.0367
2.01565 8.14105 25.3843
1.60094 4.36783 21.6001
1.5848 5.78813 30.6506
2.13526 5.84081 25.7638
2.45133 12.1972 46.0542
3.53305 10.8864 21.8885
1.3447 8.61898 40.6269
3.05556 13.2694 52.5927
3.15668 4.21378 33.5537
3.49411 13.621 36.0556
2.21998 5.86075 21.2254
1.94461 9.34395 32.2365
2.27113 6.31467 20.0329
1.57805 5.80692 30.5808
2.92089 10.3149 31.9389
2.25889 6.42009 19.4542
1.44526 7.32621 35.0219
2.69288 10.0241 44.309
3.66254 15.4067 47.1993
3.14713 9.80767 15.647
0.660587 6.08836 41.0497
3.14287 8.96365 28.0506
2.11196 6.03032 30.049
2.64179 10.0196 29.7996
2.22687 11.335 44.9327
3.10215 10.9474 54.9985
4.01009 13.1666 30.8821
1.88482 7.81537 34.7738
2.36178 7.42212 26.2815
1.77789 5.30523 18.8837
1.64849 11.0393 34.7386
2.36059 5.51911 19.7266
1.22821 5.18946 31.6038
2.63205 8.22583 21.8147
1.43424 5.76999 29.6274
2.31773 6.22675 17.9337
1.41838 6.88505 17.5013
1.04774 7.52708 43.2818
3.17531 5.61893 8.21104
1.0024 8.55591 29.0268
1.48755 3.91001 26.7902
1.7776 6.70434 43.7989
3.55204 10.6885 18.2122
1.36285 8.45156 34.6259
2.74146 9.57284 14.2653
0.685088 7.43675 43.7247
2.55878 2.99515 9.12473
0.838871 5.72608 34.4585
2.40155 8.47752 43.7834
3.33223 14.9757 42.202
2.50233 5.37405 27.7902
1.93926 7.00443 28.1228
2.41717 12.7861 55.1985
3.66186 8.48754 35.0229
2.6217 6.87086 14.6542
1.24451 6.44793 17.7188
1.03365 4.27183 21.8313
1.41025 6.2881 21.8525
1.46707 5.07087 31.0297
2.5425 7.22527 24.6136
1.83359 6.122 15.7615
1.16759 8.02875 28.0255
1.65011 5.16469 20.6514
1.49423 4.58976 21.5381
1.62344 6.66585 31.2818
2.03212 4.96908 19.7927
1.6286 8.20774 32.5852
1.98262 11.1002 50.0065
3.6018 8.19278 33.2382
2.51734 7.38451 12.6913
1.13706 5.98772 35.6063
2.58314 9.04288 26.6679
1.89174 8.01252 24.5033
1.92407 10.2069 40.2574
2.63148 11.765 45.6296
3.51956 12.6621 19.7501
0.967659 8.94841 41.1555
2.62706 6.8711 18.4874
0.993546 4.26727 39.3021
2.82462 9.09656 29.0448
2.32404 12.2758 40.6996
2.5341 8.09768 27.8811
1.88453 7.42767 36.3026
2.57448 5.82569 18.5414
1.53192 12.7462 70.8021
4.34043 10.5845 34.4687
2.32756 9.02758 37.0553
2.23149 6.21245 20.606
1.81898 12.8543 38.7477
1.93933 3.52291 34.7904
2.21986 5.88214 39.8901
3.43465 14.1338 29.8273
1.80844 8.50246 20.2688
1.29349 4.58022 30.0293
2.20409 7.13031 18.6791
1.17786 3.62002 8.82313
0.595602 5.69571 33.5867
2.39235 5.51356 24.7598
1.91597 7.16143 25.7752
2.10363 8.34916 28.4308
1.59693 6.89712 55.3273
4.67709 20.9193 57.8423
3.62813 9.63278 25.0037
1.47292 7.78795 30.259
1.76967 11.6139 64.2062
4.44084 13.5676 36.9984
2.08563 3.40958 23.3387
2.0006 6.80308 25.0947
1.84995 9.28253 35.3551
2.50986 11.8657 31.142
2.05503 8.59085 24.4128
1.328 5.12953 32.3756
2.38747 7.47656 23.6033
1.94333 14.6368 43.9188
2.27607 6.91496 33.2777
2.0029 4.62622 14.5691
1.14743 6.10983 27.1404
1.95577 8.80756 23.5933
1.26589 4.17807 30.3436
2.00283 4.67069 27.0507
1.80518 7.48666 15.9733
0.908433 5.15864 35.6619
2.67092 12.0471 27.2262
1.77234 4.12452 22.9578
1.9546 14.5557 68.737
4.53417 14.9238 49.0785
3.10257 8.67163 20.1565
1.45717 7.10446 28.5488
1.96356 8.40986 48.4369
3.08842 7.16033 30.7773
1.99165 6.88294 29.4152
2.16072 8.95154 31.8115
2.16268 4.3268 12.1788
1.09843 5.84681 14.3195
0.99352 8.398 49.5435
3.35823 12.5479 21.9819
1.24483 7.25637 50.6927
3.13289 5.02119 23.8297
2.16852 11.4024 26.0243
1.52807 8.10239 21.3093
1.45544 6.0958 24.599
1.72417 24.8321 100.595
6.10694 14.5549 95.155
6.05556 17.475 34.1413
2.30229 8.399 35.9967
2.38514 11.432 37.3542
2.35444 6.34502 23.2249
1.51524 7.00356 23.2442
1.23678 4.02357 17.0049
0.89699 5.91819 26.586
1.46032 1.42902 21.4774
1.40975 4.00195 25.8798
1.83778 9.1525 48.9029
3.27966 12.0228 25.9554
1.80801 6.67417 29.9771
1.75841 8.13551 33.7608
2.118 6.08329 29.425
1.98376 6.83381 36.4348
2.3164 6.2812 24.7772
1.69066 7.1385 27.8461
1.93836 7.8149 27.0829
1.83642 7.09513 27.9713
1.83544 7.31009 18.4319
1.21623 6.58817 36.9126
2.41524 8.93863 26.1098
1.5479 5.28865 15.4406
0.902569 3.01833 16.9997
1.21025 5.26708 23.331
1.60532 8.50904 44.5034
2.84821 8.20293 29.4643
2.07298 10.4186 30.1487
1.72009 4.68519 21.5969
1.3504 8.77269 36.6806
2.27095 7.09183 37.044
2.50842 11.4196 18.9111
1.10971 3.8429 14.0644
0.779835 4.16112 24.8788
1.47364 6.31286 25.6922
1.69359 8.966 34.4149
2.06613 6.4866 23.103
1.49952 9.00947 31.7539
2.04633 5.03045 35.8308
2.49559 13.6984 43.2204
2.38401 5.98936 25.7451
1.5673 9.08729 41.8807
2.2955 10.5424 37.2817
2.29047 7.57225 26.7904
1.6899 2.42675 14.6077
1.03452 9.18275 44.5952
2.99376 8.94833 20.4128
1.52954 7.43479 32.1845
2.14443 6.17768 37.0436
2.54753 6.82531 26.3577
1.84089 7.79385 22.9503
1.42461 6.44606 56.9292
3.82198 17.2339 36.9183
2.18072 11.2 42.0221
2.51892 3.91933 12.9676
0.913568 5.95674 28.7729
1.66433 6.4098 16.405
1.04084 5.67219 33.0339
2.04206 5.75701 28.2818
1.74729 8.07886 20.9073
1.28619 4.29906 19.1635
1.25275 5.80178 26.852
1.86683 9.76389 39.6636
2.31201 6.12736 25.8379
1.52157 9.09266 24.7693
1.35993 5.13997 19.139
1.1436 5.3634 27.3102
1.88514 6.42316 16.1051
1.17569 5.64861 34.2685
2.18569 6.69117 17.1983
1.11091 5.82168 27.7157
1.84566 8.2512 27.6127
1.55516 7.10108 28.141
1.82861 4.16633 17.2626
1.06328 9.04575 32.3231
2.15838 6.37391 24.5226
1.54405 4.91491 28.5755
1.69095 4.21231 13.096
0.740647 4.41348 16.4467
1.06873 7.08035 44.1705
2.86161 8.99855 23.8889
1.39913 2.48939 23.8486
1.61936 7.31435 31.0249
1.81081 8.73189 32.1663
2.00299 7.56042 37.8837
2.38928 7.6919 31.7106
1.9428 9.46961 35.8967
2.31095 11.5369 28.4657
1.72659 5.61737 32.4649
2.20777 4.40463 15.6979
0.837569 7.71052 34.3649
2.40402 8.29734 49.9442
3.10031 14.2511 33.9133
2.37524 9.71845 46.552
2.65379 7.78831 19.4719
1.26645 5.2615 30.7613
1.79213 7.02739 14.2096
0.939332 5.62652 35.5777
2.20724 9.714 32.249
2.07871 5.55669 26.2553
1.56498 5.59783 28.7036
1.61249 7.57991 33.2845
1.90899 5.54539 20.2961
1.32016 7.81738 29.8979
1.8761 11.0964 44.6109
2.9165 10.0426 38.9441
2.40958 7.80801 37.9814
2.63151 9.63227 21.1124
1.30069 8.20201 39.378
2.44327 8.92498 33.8852
2.20365 6.96703 49.0889
3.33281 12.1255 30.96
2.00786 8.0505 17.2695
1.14949 7.6565 44.1794
2.61339 9.91078 27.7715
1.75817 3.94336 26.7592
1.75861 6.2215 23.7371
1.5579 5.20757 15.9608
1.08899 0 0