# pn-170911/RbIIR-61-WTZR-1280-1959.psd
# Power spectrum* (dif=0,1,2) (really just |FT|^2)
# NOTE: only the first half! (symmetric)
# weeks: 1280-1959
# 19 clock-days, 0 excluded
# PSD: 1441
292.713 0.0543167 0.0181386
10664.2 0.342206 0.0244519
44626.9 0.991774 0.0217165
18166.2 0.857189 0.0229657
20774.1 1.57641 0.0292428
9772.87 0.928326 0.0259623
4444.32 0.520136 0.0259566
3457.52 0.654915 0.025879
2134.94 0.642788 0.0256516
2255.48 0.605093 0.0267259
2249.86 0.977416 0.0222597
1175.24 0.417908 0.0198276
1264.67 0.877714 0.0223104
721.28 0.591498 0.0244202
1386.07 1.13373 0.0235873
576.179 0.59147 0.0249591
616.187 0.784452 0.0238887
547.959 0.593533 0.0290669
769.386 0.898862 0.03
594.726 1.05944 0.0245507
551.426 1.1624 0.0303452
613.078 0.80175 0.0266317
471.829 0.939012 0.0267609
409.978 0.859072 0.0267075
317.217 0.734635 0.0198886
309.778 0.828305 0.0266665
307.425 0.937787 0.0286272
383.631 1.05875 0.0276537
314.359 0.939291 0.0286388
241.094 1.05286 0.0299256
311.423 1.11402 0.0332556
379.873 1.48488 0.0329211
264.262 1.3338 0.0344087
210.421 0.979973 0.0342651
308.74 1.46766 0.0399702
269.137 1.29516 0.0337861
255.502 1.35584 0.0319611
260.504 1.62283 0.0368716
202.39 1.31153 0.0300693
233.512 1.48694 0.0304097
266.674 1.851 0.0451029
164.441 1.08828 0.0396037
152.431 1.31495 0.0438231
266.45 1.75512 0.0379288
204.681 1.6165 0.0454957
163.329 1.34716 0.0414684
167.159 1.52593 0.0365079
187.066 1.73705 0.0417198
177.257 1.76922 0.0469696
149.979 1.87419 0.0461132
178.852 1.98302 0.0622077
263.377 2.84692 0.0666924
149.355 2.44936 0.0475459
152.974 2.10673 0.0641899
230.399 2.94801 0.0378973
175.75 2.50041 0.0537399
104.695 1.54694 0.0482973
211.112 2.98422 0.0776543
208.414 2.79747 0.0652807
102.609 1.82136 0.0541904
178.385 2.85192 0.0746692
173.141 2.59872 0.0772141
183.515 2.97219 0.0972396
106.911 2.33536 0.0840158
122.168 2.36879 0.0835316
175.794 3.34053 0.0738476
139.941 2.36001 0.0671327
117.525 2.70776 0.0787588
118.994 2.58611 0.0809098
243.402 4.51375 0.107316
89.8084 2.10122 0.0685858
144.51 3.55858 0.117631
132.194 2.99037 0.107291
106.273 2.58791 0.0934709
136.051 3.10512 0.1069
119.526 3.01547 0.0956709
197.707 5.27866 0.224973
102.149 3.00805 0.0978167
114.716 3.21652 0.104213
130.621 3.57027 0.11869
157.815 4.70794 0.199446
74.0511 2.02476 0.093477
98.3055 3.45192 0.128798
141.294 4.47359 0.16688
92.4339 3.47062 0.136915
94.4783 3.21284 0.141086
128.499 4.02205 0.172078
167.164 5.94811 0.187176
153.173 5.20616 0.143098
150.125 5.06997 0.188962
95.7398 3.61943 0.176843
173.001 6.7068 0.316807
91.5125 3.38918 0.153668
145.726 5.74342 0.247985
81.361 3.51932 0.17136
146.791 5.49615 0.255146
93.4929 3.93952 0.21462
153.722 5.7912 0.274298
116.508 5.15741 0.26175
104.105 4.45124 0.221555
123.962 5.38073 0.337539
115.119 4.90181 0.220014
113.614 5.33574 0.301297
134.088 6.25926 0.347239
93.6338 4.65277 0.264489
133.854 6.83966 0.371611
94.3252 4.55022 0.246275
87.0751 4.12541 0.252019
100.365 4.94663 0.289364
66.8434 4.0146 0.287173
154.45 8.96046 0.486117
87.8552 5.44472 0.378299
137.66 7.97916 0.423639
93.4953 6.18109 0.41373
138.374 8.07543 0.447169
122.167 7.03147 0.478339
107.277 7.04923 0.459631
76.4216 5.25014 0.354115
98.5624 6.71455 0.462124
94.7643 6.84898 0.449059
116.352 6.89887 0.561694
85.1319 5.79955 0.4027
105.805 7.33235 0.507521
108.235 7.47128 0.541223
82.3877 5.92064 0.514333
75.5052 5.92994 0.523228
75.6251 5.70569 0.489111
69.8937 5.2434 0.419504
80.6636 5.9694 0.467987
117.488 9.88752 0.843489
88.1993 6.29471 0.553811
110.505 8.55131 0.6275
94.1181 7.9733 0.633726
74.5603 6.12522 0.528447
95.1561 8.76889 0.765059
128.17 10.7431 0.980303
96.9161 7.5427 0.665715
50.7339 4.60881 0.420597
108.952 9.14719 0.750146
88.4439 8.35016 0.842125
117.217 9.65034 0.902129
107.081 10.1783 0.924006
80.7731 7.9166 0.749554
80.4669 7.76442 0.836375
99.2027 9.33726 0.85797
128.093 12.6353 1.28286
102.59 9.78698 1.01613
60.7243 6.50095 0.757786
64.9178 6.79513 0.750122
78.9299 7.89565 0.887221
72.764 7.44527 0.792961
70.2121 7.45255 0.843548
95.8045 10.8785 1.22559
92.4708 10.1641 1.08458
53.6467 5.77633 0.724591
102.633 11.4465 1.33129
97.1962 10.3528 1.1527
50.2428 6.37043 0.741794
104.837 12.7589 1.5198
101.411 13.125 1.53117
78.7152 9.09098 1.07127
80.9245 9.27122 1.20795
94.0584 9.97723 1.22483
94.4727 11.0297 1.35487
124.652 15.2429 2.06155
124.672 16.5107 2.13774
85.0953 11.0529 1.42769
100.152 11.8011 1.43188
76.8693 10.7705 1.47417
47.702 6.5237 0.928092
78.333 10.967 1.59763
74.49 9.80355 1.33691
69.8452 9.66516 1.33979
105.588 14.7495 2.09244
59.8261 8.1851 1.29446
49.4518 7.31269 0.996262
70.921 10.1474 1.43871
77.9641 10.6887 1.57341
79.5808 12.4645 1.95354
72.0748 10.1942 1.4353
87.2845 12.9632 1.95462
54.9338 9.38839 1.58649
79.3916 11.2068 1.62164
71.427 10.4127 1.68504
71.2464 11.1686 1.8343
81.4412 11.8043 1.84975
109.129 19.7371 3.33445
73.5571 11.5114 1.78159
65.1541 11.1729 1.84211
69.9337 11.8231 2.05729
56.4767 9.23464 1.58696
46.8102 9.55234 1.82847
103.984 16.8249 2.73168
128.121 21.5608 3.51326
56.9532 10.1419 1.83108
52.002 8.73383 1.37952
67.0398 11.5761 2.05726
70.1942 12.7243 2.35032
77.4414 13.5101 2.5113
67.1429 13.0578 2.27741
55.1047 9.62653 1.63206
63.4166 13.2959 2.44316
66.2494 14.0716 2.8454
50.5718 8.85712 1.82096
54.1964 9.95747 1.80166
47.0214 9.1901 1.94609
73.7354 12.4708 2.46682
86.2929 17.0388 3.3972
64.9536 12.1434 2.36456
67.4521 13.4302 2.71739
51.7116 10.1951 2.11893
113.079 22.5739 4.73317
53.0736 10.8008 2.36356
56.1214 11.5621 2.62244
49.5207 10.7594 2.34743
65.2045 13.8309 3.07106
77.0895 15.9193 3.51668
60.8569 13.0599 2.81769
50.1347 11.6815 2.65733
72.2529 15.6062 3.44865
57.0659 11.8112 2.72745
36.4649 7.70647 1.73808
56.3652 12.8646 3.20835
69.9913 17.167 3.77467
51.8914 13.4184 3.16661
38.0489 9.41091 2.54808
78.6527 19.6106 4.96779
63.7497 13.5611 3.101
61.9973 14.8277 3.6634
38.8148 8.73455 2.09358
71.1129 16.7834 4.11453
40.049 10.3287 2.67862
47.553 10.8525 2.61483
59.6657 16.1755 4.38335
56.4838 13.2749 3.20741
52.7876 12.7872 3.12146
62.1442 16.4414 4.43826
64.1654 16.5651 4.3917
45.8902 10.9299 3.03574
83.94 23.9438 6.53951
47.8655 11.9591 3.34133
77.4317 21.6832 5.90906
86.0117 20.4947 5.08986
65.7628 18.4559 5.0535
58.5688 16.7912 4.52203
54.5945 15.3037 4.13271
55.8628 16.0442 4.62254
41.0658 11.4562 3.40552
52.4256 14.1205 3.9258
34.5335 10.4608 3.36615
61.9282 16.6714 4.43139
62.6806 18.9992 6.1357
61.6694 18.9232 6.14183
68.0045 18.6455 5.00622
88.504 26.1659 8.00429
57.7547 16.9927 4.51562
51.6234 17.808 5.73225
70.3453 19.7772 6.00571
42.1573 13.9375 4.79045
48.0277 14.8048 4.85243
56.6054 15.4081 4.45325
68.0974 20.5979 6.45586
60.3477 21.0418 6.85589
51.5426 15.8876 4.96436
36.8056 12.2081 3.89572
49.086 14.3395 4.3097
44.3453 16.2169 5.36466
54.4728 18.1832 5.95557
64.8146 19.8466 6.46935
39.1694 13.2971 4.68703
68.0432 23.1185 7.59411
47.1267 16.3254 5.39149
51.2497 17.4078 6.19184
48.146 18.8229 7.17113
76.0457 24.7348 7.6287
49.4628 17.4407 6.28821
54.3421 19.3278 6.38372
29.6618 12.0752 4.7092
48.6714 18.8107 7.39034
40.9957 14.3576 5.13226
71.8806 26.0486 9.75173
57.748 19.5582 6.70273
48.6143 17.0464 5.76084
48.0855 16.7525 6.1788
59.7044 23.0939 8.54403
40.8834 14.1177 5.05504
48.5038 18.1032 6.98996
42.0707 18.321 8.01139
68.0917 24.4361 8.42819
49.3107 19.3892 7.53647
46.7498 18.2624 7.59666
73.5889 30.6398 12.3396
52.4106 19.6128 7.60887
34.4946 12.7728 5.43617
44.1126 17.1151 7.06951
35.0648 13.4664 5.29962
61.5528 22.9233 8.21299
63.6802 26.7176 10.6864
44.5355 17.9855 7.22325
36.9978 14.361 5.68373
33.881 13.0233 5.08557
34.7205 12.8582 5.09771
49.2506 22.99 10.3769
43.0383 18.9807 8.13464
41.7085 17.0291 7.38783
54.5495 21.9748 8.79535
40.4587 18.5073 7.8447
40.1115 17.7142 8.54449
44.9276 21.1057 9.30445
30.1124 14.5978 7.18318
46.4555 20.3183 9.08302
42.4516 18.2452 8.39492
44.3533 16.8884 6.7153
48.1756 22.0266 9.72036
35.8292 15.6492 6.35325
49.2821 21.0155 9.36462
48.1552 21.8344 10.2622
33.667 15.4736 7.22666
48.539 23.8991 11.329
43.1949 20.3407 9.77807
38.337 18.2898 8.95975
53.0862 22.8199 9.45754
41.732 20.0684 9.4475
54.6255 28.1988 13.6089
35.5212 17.2746 8.45207
19.5082 7.84634 4.41609
37.6088 18.2064 8.46832
41.6315 18.3235 7.48131
40.5982 23.9889 12.8201
29.1929 12.0848 5.46272
47.907 23.4681 11.1496
34.7694 20.4032 11.587
46.4837 22.2518 11.0357
39.0459 17.5613 8.31994
26.8896 13.6231 7.34607
51.2836 24.5287 11.7241
37.5301 20.9381 11.5169
32.0487 16.3885 8.87693
41.7603 24.0031 12.8637
45.8177 21.9629 11.0444
49.4919 26.1516 13.5443
41.0851 21.3847 11.357
35.3742 18.6992 10.5058
46.2682 21.4983 10.4167
37.6185 22.4503 13.3629
22.2339 9.72579 5.45106
29.4235 16.1165 9.31655
48.9622 27.2617 15.7923
29.3843 14.0278 7.11229
32.8335 18.3649 10.2312
33.1528 15.8107 7.89815
23.9831 13.8943 8.19442
24.0276 14.2794 8.01631
29.44 15.0663 8.47092
51.445 26.7264 13.3669
35.43 21.3919 12.9462
40.0427 21.928 11.4981
41.7851 25.291 15.0008
45.2235 26.214 15.4725
25.9882 14.6175 9.03208
35.3633 21.9547 14.6591
62.1217 33.9038 16.9086
35.1652 21.5227 12.5343
38.3794 23.0765 13.48
24.6024 17.0869 11.0704
30.235 16.876 9.68688
31.9706 21.1025 13.9417
37.6236 19.3045 11.42
27.9026 16.674 9.80565
26.7111 16.3596 10.0541
37.4641 22.4087 12.1975
36.3279 23.7632 14.173
34.5641 23.5681 16.0266
31.6706 19.101 11.4942
34.8959 22.3325 13.8823
23.1057 15.1942 10.561
25.1319 16.0603 11.0749
31.0666 20.4823 13.0944
27.6979 16.4334 10.6957
29.052 16.9351 10.2743
35.3032 22.8758 15.0132
29.5195 20.031 15.0277
34.1048 23.3996 17.0314
39.5103 22.7358 13.6614
37.8669 22.8366 13.9943
43.5436 29.6999 18.9458
42.1607 27.224 17.7392
27.635 17.7124 11.8572
23.7618 15.566 11.0019
45.2473 31.6197 20.5734
31.1667 20.4259 14.4041
40.3711 29.9015 21.5971
24.6518 14.0843 8.70526
29.3254 20.384 15.1571
28.5202 19.3547 13.6717
39.7622 24.3577 15.1366
31.0567 23.813 17.2986
19.1181 13.0986 9.80192
24.6522 16.8714 11.4735
25.2687 19.9862 16.8449
29.3798 20.1278 14.7515
34.0507 22.2736 14.9046
29.8218 21.4476 16.9653
29.0671 18.2951 11.8598
40.4892 27.2765 17.8044
26.3195 20.3344 15.0798
33.3022 26.9501 19.3368
29.2667 20.4551 15.1721
26.8313 20.4685 15.9145
28.9739 18.7349 11.6862
23.9582 18.601 14.1699
26.824 19.805 15.3401
28.8137 21.1829 15.3588
17.0559 12.5465 10.1798
32.9391 25.5022 18.798
23.0479 15.3534 10.4805
22.0495 17.5226 13.5565
25.1766 20.6462 16.3467
23.0052 18.1811 14.8179
29.54 22.0929 16.5984
27.1357 20.069 15.2827
18.4365 16.7495 16.0848
39.962 31.0792 23.6546
24.9944 20.0198 17.0917
24.7266 17.1963 13.5436
29.4797 22.2578 15.9752
21.026 19.0881 16.4782
27.6192 22.5286 18.3361
26.7707 21.8264 18.7409
26.6485 19.5767 16.0506
28.173 21.8011 16.8678
23.9401 18.2425 13.3201
19.834 18.1364 15.3115
24.5296 22.8574 19.7379
27.7578 22.4603 20.0933
26.1586 18.5711 14.5364
25.2291 21.1091 16.8394
31.7157 28.8776 24.0472
18.3611 15.412 14.2407
22.8235 19.0989 15.5048
16.1534 16.4569 17.8514
28.9506 21.9619 16.1022
15.902 13.4766 12.7898
31.3331 26.9885 23.1848
26.0442 20.9558 16.4958
15.9719 14.8909 13.375
24.9982 24.0645 21.5183
13.3497 11.7592 12.3637
27.5697 22.678 18.3336
19.9185 17.3915 15.6384
20.4413 16.7186 15.6627
32.342 27.816 21.6679
16.3139 17.8128 19.152
24.9876 22.3736 20.0403
24.4798 19.5656 16.5529
22.6965 19.9878 18.7212
28.4215 25.1491 19.9559
20.5986 22.8906 24.2119
24.5044 22.214 21.5472
23.8838 19.307 15.8282
22.3427 20.845 20.2109
27.1731 24.6396 20.6993
21.4544 19.9892 18.6764
21.5521 21.8539 22.4082
20.4409 18.9225 18.3641
14.6746 13.8046 14.5278
17.8656 16.1416 15.4715
16.7744 14.7561 13.5721
16.1871 15.8249 16.1083
27.9426 26.1425 24.9818
26.4379 22.8847 19.9076
15.0682 17.609 19.067
24.4795 24.7762 25.3066
20.041 21.7308 24.4151
25.3027 19.4742 15.3546
22.5866 22.9788 21.8927
15.724 16.139 16.3815
23.8431 23.4464 23.3302
23.4115 21.9597 23.073
13.8134 10.8077 11.7158
25.4509 23.6816 19.9064
21.22 23.4774 23.8394
18.3664 19.8268 22.5589
34.2922 34.0676 31.6172
24.3546 23.5077 22.6862
17.981 18.8225 18.8581
19.2415 21.231 22.6296
16.1037 19.2403 23.0378
15.5055 11.7957 9.49842
19.4999 21.915 22.9383
18.1418 18.5978 19.6714
13.1276 11.9923 11.2546
14.9538 17.9786 21.627
19.2827 18.3307 19.9422
17.3049 19.5704 22.3537
18.9928 19.0918 21.7772
13.3978 10.4142 10.4836
15.3044 16.2883 17.2667
12.9864 12.3575 15.4429
28.9593 26.9559 22.4304
24.1416 26.8224 26.1712
16.6181 21.1756 24.5273
14.9977 17.1889 21.4895
19.6024 21.5035 22.563
15.6935 15.7155 16.3018
15.3381 16.7785 17.9206
15.1511 17.8502 19.6856
18.6506 21.0991 25.3586
19.3752 20.4109 21.8329
15.9497 17.2417 20.0627
24.8548 26.9216 28.5353
17.3339 19.3196 22.2441
14.3403 16.1856 20.5166
32.8861 33.9802 31.4892
15.4053 19.8616 22.8767
13.1249 15.021 17.8096
14.332 16.0081 19.717
16.8689 17.0604 17.1129
12.499 14.1449 16.3365
16.7171 20.8394 24.1627
20.5359 24.6752 28.1331
12.7676 13.2912 16.7595
14.7953 16.3689 20.4673
18.5467 20.1424 22.2318
11.7878 13.5354 17.9591
20.0488 23.2286 24.4011
12.4346 16.3591 23.0771
16.373 16.8314 19.1653
13.5371 16.0092 21.5547
25.361 26.2412 25.6667
13.1628 15.2625 16.9476
15.0184 21.5381 28.1185
16.7544 17.37 20.5233
16.345 16.6085 17.7998
15.3729 18.0524 20.0673
14.982 18.7302 23.6217
19.0979 23.7188 26.572
15.7993 19.055 23.7547
13.8797 18.2864 22.8067
17.5395 22.6598 31.9413
14.8079 16.0567 19.5248
11.1447 12.9543 15.6889
15.9032 21.8924 30.1294
15.3352 17.7867 21.1078
17.2679 20.9469 26.8909
19.3634 24.787 31.441
19.0663 19.8823 20.8532
16.0672 21.5032 27.6896
18.8936 25.2447 33.6668
16.2744 18.6558 22.2041
15.2387 19.599 25.8326
16.6231 20.573 27.794
22.4109 25.9499 25.9469
20.6086 34.3085 53.578
42.2292 51.8567 63.6896
45.1389 59.2853 66.2886
13.6773 22.3376 36.9815
14.6494 19.5284 31.5911
22.3662 24.3772 26.401
13.1848 16.3353 20.9122
13.9468 17.6709 22.5411
17.9927 22.9422 24.5078
8.36885 12.3793 18.288
17.0686 24.769 34.151
15.1212 21.7864 30.5137
17.1096 23.476 29.9132
11.7654 15.0011 21.5154
12.1615 16.4071 20.1255
11.043 20.1837 33.9951
15.6733 18.6399 24.9406
14.6213 17.9097 21.2734
12.8377 16.7074 19.155
6.16601 7.96443 10.9495
8.818 13.075 18.5916
10.1551 15.3613 21.9164
14.551 20.9364 28.0964
10.3386 15.9236 25.9754
13.1849 13.5782 16.3846
13.5347 18.933 23.0329
9.04925 15.959 26.6887
12.6979 19.0449 31.3926
14.0004 16.5686 22.4085
12.7677 15.8361 20.2603
8.48568 12.6239 21.0301
14.0959 18.4279 23.6248
10.6386 13.8855 20.8931
19.82 28.7781 39.2874
17.3337 25.7516 38.382
18.5754 24.8349 31.2419
13.8725 24.0657 41.0473
13.9099 14.808 20.9744
16.3131 20.737 24.171
12.0803 17.0416 22.1236
10.6968 17.3222 28.4121
14.3524 21.976 29.9667
13.6601 20.7221 35.1234
12.9856 17.8552 24.0411
12.0909 18.742 28.7619
13.4548 18.8913 26.9054
15.656 25.0084 39.799
16.1474 19.9426 21.6142
9.58591 17.0417 30.1869
13.4033 19.667 32.5853
18.1556 23.2823 29.1886
12.2216 16.1185 19.969
13.4932 23.0711 32.9638
7.60606 9.4441 17.174
12.701 18.319 25.8772
17.7783 29.7152 45.3913
12.1145 19.0372 29.9788
12.2239 17.255 26.3205
13.4735 20.244 29.8773
15.376 27.0839 40.372
11.5145 18.5868 27.8701
12.6796 21.3076 34.8828
10.7147 16.7787 27.4597
8.58334 11.1866 19.8718
13.4157 21.0757 32.0688
10.5796 13.5305 20.5941
10.4874 16.3109 25.0015
12.4367 20.8345 29.3904
6.26212 9.72115 18.5773
10.7531 15.2943 18.7037
7.43539 14.2183 24.0539
9.16555 16.5336 27.4654
9.66689 16.1209 27.2564
12.2802 21.5758 36.5099
10.6052 17.4205 33.6293
13.7956 18.0692 28.3988
13.5996 20.042 29.0555
12.2953 16.8484 21.4514
8.98136 20.2556 37.9882
13.7611 18.7782 28.7465
12.2172 22.7038 39.52
12.1104 17.0709 27.5777
11.2356 18.0244 29.8723
13.0282 21.6356 36.6922
13.1298 21.2195 36.8207
12.4442 16.8482 26.5505
11.4136 16.2634 22.8495
8.80889 13.952 22.4261
10.7657 16.912 24.0083
10.5831 21.43 36.1232
7.72673 11.7375 21.4613
9.34291 13.6242 18.4069
9.46562 21.3003 40.8215
10.0593 14.2477 24.5069
7.2961 12.0496 24.3934
11.3454 16.3551 23.4759
9.77579 16.4734 26.402
15.1991 27.7501 39.2486
10.0369 20.4315 39.3706
9.45399 16.1603 38.1586
30.5896 55.4162 80.7075
12.31 20.4243 39.9588
11.7058 16.4454 27.1518
13.7894 24.5474 42.1318
10.0097 17.9311 32.996
10.8342 21.3093 45.695
15.5036 21.5491 34.1802
12.7183 20.2855 30.3696
8.98037 14.5421 23.5993
8.75063 15.3086 29.1653
10.2974 16.6764 24.2756
6.61474 10.7133 18.3946
11.5401 23.9338 44.8849
12.2548 22.6107 37.1934
8.72375 15.5455 30.8201
9.14637 15.8307 30.0108
9.62797 18.3103 41.1496
13.3289 17.8204 28.3415
15.0448 25.9154 37.4577
22.0598 55.7766 109.295
13.5498 13.564 31.2691
13.8947 18.772 24.6419
10.56 20.6726 34.8992
9.19467 15.115 25.3942
9.04836 16.1252 27.1083
8.8891 19.771 42.1662
11.2184 18.5217 33.5781
10.3134 15.4859 24.6918
8.7255 16.5805 30.4364
7.127 13.4695 24.7701
6.46643 10.5924 24.8973
11.8137 21.3922 38.3173
9.60035 14.5474 23.047
5.67867 9.3632 20.3678
11.2689 20.1892 31.9059
9.42877 20.1026 36.9214
9.3416 17.3431 33.4882
10.4752 19.8397 30.5632
6.47797 15.8599 38.6558
12.3773 24.0917 44.2985
10.0733 18.0774 35.9142
9.68191 14.2977 25.1209
13.4778 28.3849 51.1452
7.92488 13.8003 32.8049
12.9716 24.3915 40.9707
7.32327 12.6675 25.564
7.66955 14.4612 28.8026
8.11413 15.2013 29.488
11.3865 22.5669 42.4404
9.16448 16.283 31.7733
10.3011 20.2998 39.8336
9.72911 15.3989 27.7647
10.1331 18.1527 28.8617
9.72451 24.2221 52.0408
11.9707 18.8115 30.8609
7.43607 13.7943 22.825
8.00303 18.3226 33.3892
8.08893 19.4485 36.681
6.79937 16.1086 38.8196
8.36705 17.0944 41.2436
9.69421 13.3931 25.1894
9.43708 17.7228 32.8199
7.6278 12.6205 25.5254
9.03597 16.05 29.1033
7.93246 16.8984 30.9306
7.82669 17.2034 34.785
7.72868 16.3355 36.8752
7.89013 14.8739 28.7206
5.85012 14.5633 36.7873
7.7867 14.0391 30.862
6.74849 12.5658 30.1158
9.91445 17.0979 30.749
7.08033 15.0965 32.1167
7.04519 12.885 32.1876
10.759 20.592 35.3613
8.00626 15.4509 27.5162
6.56114 14.6416 31.8655
9.31468 20.2825 38.8388
8.92914 19.9517 45.5223
8.89572 15.3492 25.7917
9.11559 34.4012 103.57
22.9895 29.2979 36.9698
8.52599 17.667 36.3134
8.88509 15.9031 34.2118
10.3025 18.5658 27.3605
5.5792 15.6831 36.5825
5.712 9.67406 22.9019
9.0946 23.071 50.6999
13.9146 36.4865 92.3114
16.9485 19.9294 23.8845
6.96443 16.4656 38.3116
10.3129 18.432 33.2315
6.96732 14.7856 30.7373
8.01944 20.9307 50.306
8.59356 12.7137 27.5025
8.02415 13.9294 26.1304
9.51985 20.9699 43.5866
15.8848 39.9351 87.9385
12.8495 26.4709 79.4857
32.2961 68.7706 111.567
11.2682 19.3885 34.1084
5.47599 12.522 34.1218
10.5386 22.7442 41.9937
6.75292 13.6582 30.4614
8.29683 20.3096 43.5073
5.63975 12.08 30.0248
4.8548 9.39912 24.6219
6.7458 13.1633 30.679
7.61165 14.5063 27.5891
8.20123 20.9914 46.7981
9.18973 18.7076 36.3288
6.17576 11.6452 25.6259
6.85498 16.1299 35.2158
8.51446 17.3234 33.2491
7.18569 18.7863 43.2392
7.09679 13.943 28.3978
5.6761 11.6795 28.1356
8.68714 18.4085 30.3666
3.89726 9.86076 23.6849
4.08057 9.03902 22.0601
5.66338 15.2081 39.2357
8.10406 15.8214 26.0362
5.08539 10.1088 16.3125
2.95956 11.8106 35.1015
7.19442 14.8207 28.9085
6.48305 21.1621 52.307
7.83498 17.2994 42.8772
6.74236 15.0922 36.6309
5.23741 11.1221 36.6648
9.34528 16.7278 25.5968
5.70822 14.5763 32.1256
7.12838 17.4613 37.5995
5.56196 14.7723 41.5075
7.28018 14.678 36.5025
6.37363 11.9745 28.4282
7.23055 17.3338 32.9392
5.91587 15.6738 42.5154
8.84711 16.0087 29.6518
5.84846 15.323 32.7982
4.91215 13.8478 40.7243
8.93095 18.2855 34.4461
4.40526 10.6328 27.944
6.64503 17.0832 40.9007
5.8878 14.5064 44.598
9.7306 18.0465 39.4352
9.54362 20.0438 35.0549
4.22404 11.4349 29.8643
6.19504 14.262 31.6296
5.12986 11.8074 27.8272
4.0232 9.01404 24.6217
5.41203 13.0834 29.3678
6.15648 17.0765 46.8881
7.40299 13.6917 25.224
5.84233 18.0741 42.4031
5.78855 10.5971 22.6395
3.99401 11.8943 34.0412
6.2866 17.8156 50.0142
8.60949 20.0604 52.1995
8.83935 19.1659 52.3215
9.95496 17.9094 34.3589
6.05926 13.3299 30.9015
5.5426 13.0754 39.0512
9.34413 18.4184 32.0333
6.22504 18.3347 47.3895
7.53012 16.2524 37.368
5.73206 15.6047 39.9944
5.5239 14.1238 36.4141
4.82478 12.1768 39.9188
7.33153 15.8539 38.6132
5.61565 11.2998 27.5914
5.77626 12.5138 33.4001
6.7722 15.0154 31.9704
6.4858 16.0806 39.6783
6.36157 10.9708 21.1833
4.93143 16.2628 39.6954
7.01032 16.7052 39.3838
5.36142 15.4067 50.4395
9.14665 17.4169 40.7897
6.89097 16.2744 45.68
8.51067 14.8534 21.7628
5.27158 17.3011 39.782
4.78042 12.2906 36.6444
7.36931 18.4469 38.5415
5.70439 16.3825 44.5331
5.70174 9.89155 27.066
5.94264 14.3235 33.9641
5.18253 11.1461 27.556
5.90534 14.2152 26.2961
5.13564 19.4648 49.2393
5.29653 11.637 35.568
4.91732 11.1436 35.0647
7.46032 20.3274 53.7681
8.0437 18.1808 42.6863
7.97604 22.8349 61.2061
7.76979 15.3746 35.1476
4.84039 11.486 26.3538
4.1259 14.4164 37.5681
3.68928 8.93462 36.3963
6.7557 12.6614 32.5767
7.15299 16.5875 36.8697
6.20692 16.2973 42.7844
6.92398 15.9727 32.6148
6.10966 18.3862 47.911
5.86982 14.105 39.6975
7.12066 16.7008 34.4672
5.88636 18.959 47.4442
4.37919 13.173 48.6231
7.06918 13.9571 38.4789
6.23601 16.7767 43.5613
4.47769 9.65096 34.4088
6.50677 13.6145 29.7703
5.82942 17.5266 47.1027
6.26654 12.8636 34.9943
6.85649 17.0108 35.3548
3.79767 10.3458 33.3716
5.99893 16.204 43.924
5.51686 14.483 40.4989
5.47304 13.4371 33.7772
4.64897 12.7363 36.997
5.1952 11.9523 29.5611
4.93997 15.4387 42.0984
4.44491 9.08376 33.9921
7.0425 16.3587 31.9004
5.56454 16.9425 41.9904
4.40043 13.4469 44.0383
6.6253 17.1194 47.1477
6.93954 15.2451 36.9402
5.55699 14.0914 30.7623
4.09408 9.4162 24.4817
4.89917 16.2343 42.259
4.95013 12.0722 34.0519
5.98019 15.6791 40.7184
5.5524 15.367 44.3515
6.51797 19.7294 51.2856
5.24074 13.2834 41.6569
7.05464 15.0587 31.8945
4.05809 11.4038 28.4022
3.65344 11.5696 32.5934
3.74382 11.743 42.6189
5.90036 14.4757 36.214
5.94093 17.6926 46.8096
5.29453 13.6559 34.1478
4.10654 10.1769 27.2052
4.39872 14.1486 43.3337
6.53971 15.6336 45.0905
7.37302 15.9823 27.8479
3.34682 12.5865 39.1808
3.92979 11.9251 35.4412
3.97233 10.075 36.3468
6.55827 18.3551 48.4383
6.07797 15.9497 37.5289
4.24657 10.9412 33.2338
4.58465 13.1358 29.7366
3.10868 11.3981 36.6398
4.55293 9.83063 27.7807
3.68745 11.9887 33.86
4.43603 12.2397 33.1564
4.29297 12.3576 35.9644
4.18074 11.2593 37.088
5.58398 11.5248 29.8404
6.63105 19.9677 44.2928
3.983 14.4771 41.8683
4.26185 14.1509 55.6112
6.78521 14.2843 36.418
5.63544 12.8238 29.8202
4.02581 13.5658 37.2553
4.39416 11.2982 31.581
4.79574 17.7916 52.9595
4.94961 9.8603 30.2727
4.93366 15.7065 51.6596
6.2708 17.0673 46.7279
4.38782 9.34371 41.1175
7.3162 21.5297 45.7784
4.78598 14.3152 41.1341
4.02048 10.2369 39.3583
6.45955 16.3067 36.4136
4.27197 14.9398 56.4016
5.93713 10.8275 31.8186
6.03024 16.5367 29.0109
3.18972 10.9955 30.2622
3.97189 13.0839 36.7684
3.37555 13.1153 75.3369
13.0761 37.1469 71.8855
4.80233 13.235 40.9857
5.26865 17.6106 49.8111
4.5847 10.6034 31.4102
3.9359 12.3394 33.0229
3.60136 10.3903 39.2323
5.84582 15.786 45.5641
5.38338 13.7579 33.3586
3.98991 11.2928 39.9128
4.92883 10.7398 23.8692
3.50308 12.9612 39.1285
3.4607 7.05469 23.4973
3.99952 14.7801 41.7899
4.57263 14.8422 42.5134
4.99143 16.6264 46.9414
4.61453 13.2348 39.6937
4.48168 14.4929 48.7438
5.33863 13.434 34.515
3.27926 8.96799 40.7171
6.22566 19.1951 44.7615
3.0942 10.0668 44.2047
5.04476 12.3217 31.8316
3.13661 9.29508 42.9947
7.59626 23.4313 80.1092
15.2672 66.8431 197.649
15.3482 22.1329 46.2852
5.64794 18.7002 44.2724
4.54978 13.5862 43.0625
4.32651 12.1018 34.2693
3.72263 15.3176 66.5682
6.85817 13.9501 38.7857
5.67609 14.59 29.6583
3.18051 9.62357 23.3795
3.3387 17.1121 58.5277
4.48899 10.3833 33.1052
3.45627 12.5215 45.1077
4.49697 11.187 37.8733
4.69121 15.3999 47.0314
4.61077 12.3582 39.1839
4.67988 13.7394 40.2093
5.75574 30.1441 157.815
22.4425 63.8473 134.626
7.94135 13.8202 40.5297
4.12532 9.85589 24.0075
4.71931 17.8975 52.9927
4.10628 9.51331 29.7756
4.30666 14.812 42.3919
3.56648 7.63602 24.2229
3.17408 9.36269 26.319
3.27595 11.2629 32.4121
3.57261 11.4688 27.4637
2.17356 10.2846 43.6143
4.8157 14.0949 39.8555
4.49943 15.1393 41.2632
3.20338 10.2048 34.5885
3.55573 13.1496 53.0508
6.39539 19.4852 68.1388
6.09895 12.9292 36.0885
3.64367 9.75924 28.8704
3.27309 10.2096 39.7037
4.97587 13.784 46.8025
6.38036 18.2135 47.816
5.31532 19.2931 51.5709
4.3893 10.7877 42.3118
6.04708 22.1386 58.1042
3.72352 8.36705 29.8983
3.69227 12.3221 38.222
3.89092 11.1587 50.8961
5.75053 16.7477 30.8068
2.62153 10.6474 37.6816
3.75754 12.4131 39.6305
3.56133 9.11732 33.5721
3.9734 12.8512 40.5495
4.44762 13.911 35.819
3.37305 12.845 46.9321
3.88134 8.87333 32.728
4.62842 11.3863 21.2221
2.00057 9.77857 41.5815
3.8625 12.6216 45.4057
4.47709 12.8468 42.4814
4.34749 11.4567 33.4852
3.60893 13.0793 42.9792
4.09628 9.64716 23.2676
2.62866 10.3826 34.7338
3.6084 14.5324 49.4959
4.28359 14.3452 48.2091
4.63216 13.2904 45.3429
3.98352 9.22065 35.3323
4.49715 15.1149 45.835
5.51804 19.0319 45.0149
3.64212 13.1875 48.1278
4.49248 11.9042 27.2045
2.31916 9.32246 43.3479
5.12032 14.3531 42.8542
5.27643 15.7481 40.2327
3.76876 15.071 39.5731
2.72687 10.6472 51.5977
5.73711 17.4794 39.9501
2.59462 10.5084 40.1465
3.61696 8.96038 29.9512
2.57797 7.76075 28.058
3.0276 12.237 41.9566
3.23499 8.73951 35.1925
4.11312 12.2275 39.7521
4.59729 19.3406 58.8166
4.75641 11.3596 33.7656
3.31632 15.4577 63.3955
4.89968 10.8027 35.3278
3.78768 11.2127 26.5197
2.64001 12.2257 38.3938
3.57297 10.4397 38.3324
3.57056 12.7318 44.3285
4.10677 15.1727 55.4995
5.39166 15.4486 45.2326
3.81538 11.546 41.9355
4.70322 15.9907 53.9456
4.35941 11.9879 42.4373
4.47117 17.1314 49.7681
3.94044 14.7458 52.6687
4.00747 10.4506 42.9517
4.6104 13.7428 40.6358
3.98646 14.0804 45.7504
3.84687 12.0032 41.1322
3.66609 10.9089 30.6096
2.94372 10.7337 32.8826
3.38974 9.92099 32.9645
3.6359 13.674 32.5073
1.97668 9.98574 53.4471
4.66682 10.4863 38.9275
3.99653 12.7719 34.1554
2.64863 9.17936 28.8901
2.65959 9.75248 39.0927
3.83372 14.083 43.0955
3.15519 8.63944 41.3686
4.22823 13.4574 43.2245
4.13473 10.3922 23.5812
1.72638 6.31625 33.1871
3.71605 13.4408 36.9944
3.20627 14.4691 52.0811
4.46964 14.7815 50.756
4.16218 9.37813 25.7334
2.59178 11.8283 48.6061
4.58482 11.5923 35.1213
3.35725 12.9976 37.0947
2.30486 7.36078 30.7804
2.94874 9.97959 38.5421
4.06656 12.1377 41.2242
3.60539 12.8271 49.2421
4.28455 12.0563 38.7085
3.2602 10.9057 47.7962
4.13478 10.3379 29.8781
2.55595 7.3581 40.655
4.6452 16.5422 34.3231
2.49145 11.0401 45.9014
3.67941 7.61403 16.9092
2.02079 8.99348 26.9494
2.4581 9.17233 37.4841
2.89968 8.08724 32.053
2.85002 8.70711 16.6008
2.24924 15.1941 59.2417
4.06174 10.4013 33.7075
3.77285 14.0842 42.4609
2.88354 7.28157 30.165
2.52178 10.617 39.8196
3.38268 11.3528 39.9241
3.7582 13.2644 37.5159
2.88072 11.5581 46.8565
3.81665 13.4526 49.5385
4.02894 11.5285 36.1964
2.35912 6.39089 30.3549
3.20825 14.236 61.0839
4.99931 11.1229 25.9668
2.76103 9.53877 32.9137
3.87863 20.2073 55.571
3.33345 8.15146 34.6607
3.22811 8.86593 23.4847
2.13438 9.75088 37.9714
3.01622 11.1552 48.2877
3.76927 11.5142 33.2044
2.7285 11.3178 48.8581
4.72599 17.3354 60.2973
4.55997 11.0486 38.0768
3.29135 12.5144 48.3004
4.07647 14.6066 45.4867
3.55953 10.9361 34.9483
2.31781 7.35264 38.9436
3.49064 10.5498 55.5286
5.03798 15.0964 29.1095
2.56756 11.3659 42.4412
3.46295 9.88136 27.5931
2.66976 13.3686 44.0576
3.36542 11.539 37.4036
2.63894 8.61359 23.2148
1.90268 12.0845 50.8434
3.71677 11.8695 40.9107
3.43321 12.5397 40.7799
3.09564 8.14139 32.8751
2.71798 8.47883 34.04
3.04799 12.4916 34.8063
2.44422 12.3852 50.8716
3.54095 8.40593 33.2309
3.0858 9.13657 33.138
2.81304 9.41515 30.2173
2.31182 8.19505 38.8338
3.15007 11.3846 36.458
2.43017 5.20701 37.7788
4.03027 12.8725 32.5766
2.70827 14.9282 48.4998
3.46281 10.7963 38.1471
2.66623 10.7745 47.2294
3.6057 12.3104 43.452
3.41277 7.42548 24.2467
2.4206 11.3969 47.5675
3.73658 15.2197 48.2111
3.34436 8.87445 39.2196
3.41357 12.5282 40.2401
2.93782 9.47573 47.0224
4.53009 16.8645 51.6316
3.60348 11.7017 51.0631
4.49171 11.8058 23.2329
1.79355 10.2749 33.9575
2.49227 11.8525 41.5353
2.93166 7.49321 24.9324
1.89867 8.01925 40.707
3.12282 10.2341 29.2433
2.50009 10.0014 40.4066
3.17131 10.5689 40.739
3.46552 12.3622 38.918
3.11958 11.5878 50.6101
3.75356 8.93446 28.7402
2.39117 9.67143 34.1206
2.47419 9.41209 33.0411
2.43694 9.05528 40.6585
3.44362 10.7203 32.3796
2.50472 11.1541 52.66
4.16916 12.7176 26.7081
1.91117 7.21965 34.841
2.61628 11.3952 46.441
3.81726 10.658 37.1575
3.19906 9.49423 28.7375
2.57407 15.7534 53.5196
3.22394 10.0698 41.145
3.31197 8.46625 39.6389
3.49904 13.046 36.5836
2.54808 8.81139 40.8541
3.4366 13.2072 42.5075
3.02803 9.86257 38.996
2.73909 7.07322 33.2884
2.68518 8.02989 32.2195
2.73007 9.26717 31.7045
2.52417 8.48375 36.0287
2.94853 13.39 42.6486
2.75636 9.59624 42.5808
3.12015 11.7719 40.2687
2.85179 8.33048 41.4334
3.81459 14.5958 52.392
3.95915 14.9309 38.9552
2.65143 9.28574 34.9571
2.69575 8.78816 28.5429
2.30258 11.8825 50.8304
3.46648 8.80631 29.5808
2.46024 9.60603 48.1977
3.88186 13.367 36.2178
2.9195 10.1847 41.0552
2.97124 11.67 30.1083
2.10022 7.08597 30.1746
2.41711 8.91451 36.3501
2.82344 10.8616 28.6929
1.85491 10.9003 48.4866
3.22903 10.2115 45.0229
3.17253 10.1465 31.8545
1.98372 6.52521 37.225
3.13401 12.8858 38.5849
2.52248 8.46784 41.7141
2.99998 9.88736 38.9106
2.8622 12.1288 48.506
3.8104 12.4531 36.1444
2.31967 7.20126 34.2412
2.5569 10.1284 29.2917
2.13527 7.35692 39.5478
3.20015 15.3285 41.5699
3.14899 11.214 34.7107
2.36742 13.2827 50.2248
3.12628 9.42689 57.0029
4.07356 10.9975 41.2876
3.03516 9.52729 30.8868
2.61423 12.2446 36.2371
2.39411 8.96396 36.8352
2.68484 9.96024 36.2175
2.58908 10.165 46.9746
3.21812 9.54067 34.9341
2.66174 12.2602 41.6887
2.79831 8.51762 37.5518
2.87067 10.5694 36.9458
2.78818 9.77439 37.5204
2.71169 10.7169 41.1002
3.18759 9.33616 27.2669
1.91562 9.26292 42.3585
2.95428 5.88219 19.7094
1.70142 9.55414 32.0533
1.98166 7.89323 32.6846
2.37019 10.6148 51.1077
3.81993 13.981 47.299
3.21346 9.8628 36.5131
2.667 10.0941 42.5195
3.01405 11.0873 39.8401
2.4366 9.24177 38.8593
2.66986 8.87999 39.3445
3.06911 13.9005 43.4469
2.78337 10.5305 48.6233
3.69149 17.0864 50.14
2.82829 6.27924 29.2892
2.14438 9.02788 34.2242
2.35073 7.30896 47.1863
3.33848 10.9547 31.5055
2.3857 8.82704 24.7525
1.49684 7.51585 29.6336
2.09132 13.8137 46.9779
2.93159 8.92644 45.9582
3.44182 8.6096 26.9995
2.01463 7.95287 26.1047
1.83716 8.00281 36.5846
2.95341 13.3499 33.1892
1.5572 7.43919 36.945
2.08952 8.96308 40.1478
3.13991 11.833 56.3138
3.71096 11.9572 40.5139
2.91924 11.4873 41.5734
2.61103 10.2832 29.3228
1.99992 8.51269 47.5651
3.08386 9.70953 46.8124
3.39381 9.93228 39.3273
3.36091 16.7925 45.0522
2.9808 10.9223 48.0693
2.99655 8.72857 25.2876
2.12456 12.3512 44.4315
3.07149 8.60343 46.0788
3.36957 12.0655 41.5145
3.35638 16.5236 42.1208
2.09359 7.02306 45.7335
3.20203 11.0005 37.6028
2.74576 10.3179 35.7218
2.19174 6.99865 34.4454
2.1996 8.13885 36.7671
2.36579 11.1244 46.794
3.16031 9.96004 37.5037
2.8984 13.5428 51.8337
3.54798 14.0829 51.2463
3.14796 8.69657 44.8821
3.26131 12.3523 46.5644
3.12533 12.3035 31.4416
1.91109 10.038 50.5776
3.45885 12.2211 67.156
4.3909 12.6316 41.0793
2.65234 7.46794 28.5672
2.16294 9.02237 35.0156
2.36778 9.15479 26.5922
1.81602 9.05284 44.5139
2.88381 10.9898 35.2414
2.3853 12.9492 42.728
2.70015 9.98823 37.1533
2.22784 7.17939 53.5632
3.72567 14.6468 49.2162
3.22304 9.16138 33.4263
2.5848 14.8678 50.5219
2.92719 9.91046 38.3731
2.57058 7.369 55.1811
3.87987 14.7789 30.5158
1.79628 7.42699 36.2108
2.67885 13.2993 52.0664
3.83859 11.6045 27.7553
1.80964 10.798 53.6747
3.60858 13.8004 47.4221
3.06729 11.2149 43.2936
2.80434 12.9406 49.5864
3.44908 8.07654 42.263
3.03694 14.1994 45.4772
2.98836 9.1651 37.0657
2.36321 6.55076 36.8161
2.68099 10.7108 46.5977
3.71776 14.9302 47.4379
2.82293 11.6731 46.8791
3.02314 10.2392 25.1192
1.77525 9.72962 58.1036
3.32766 11.1953 45.3364
2.9867 10.2631 29.7409
1.92482 6.30786 24.9251
1.81423 8.33514 40.546
2.58263 9.99951 36.6506
2.18257 5.88908 33.5513
2.47276 13.4332 43.6922
2.60138 9.40523 26.3625
1.78266 9.18696 45.3078
3.10317 9.07486 44.8818
3.04575 12.7684 49.1953
3.26685 18.4439 55.336
3.46119 9.24641 47.4305
3.11221 9.62001 42.5937
2.88296 10.72 38.4744
2.73942 12.6835 40.5542
2.49474 9.50336 56.3678
3.50293 12.7542 42.064
2.64508 9.28728 35.3266
2.33281 11.6091 49.0938
3.18074 10.391 38.0477
2.59231 10.7206 51.6728
3.64174 9.32391 28.3112
2.00857 7.88135 28.797
1.91834 10.71 36.0117
2.11209 7.35811 38.8443
2.33992 10.5609 50.6086
3.36275 11.0851 35.4634
2.27978 7.84013 39.2636
2.63735 10.4014 39.1051
2.64799 7.91038 21.9432
1.59451 8.43412 36.4323
2.48929 6.91077 33.0206
2.42564 10.046 43.435
3.028 12.9713 34.8705
2.21067 10.0712 45.8287
2.80371 11.1746 42.7687
2.75493 8.27214 28.0338
1.9952 5.52275 24.6036
1.86967 11.573 40.3672
2.60327 10.5107 31.5219
1.78086 7.89524 66.793
4.45892 12.2614 33.1032
2.22918 10.6829 36.5761
2.57612 12.9608 43.8764
2.85462 8.01537 39.7795
2.66771 9.22939 43.3931
2.87021 5.33529 35.5166
2.59701 17.4601 50.6809
3.14437 7.96195 35.6788
2.60699 9.32284 39.0892
2.53915 7.45432 36.8746
2.49184 11.6185 47.0303
2.86713 9.68825 31.1862
2.22532 9.72112 41.5832
3.10198 13.0752 42.7569
2.46989 10.4703 39.8459
2.52867 12.9055 59.0185
3.80171 11.2421 31.5923
2.02516 8.36274 40.1229
2.766 14.9954 54.1047
3.43762 11.728 30.5863
1.99963 7.77972 29.2994
2.10524 9.22576 54.6533
3.66637 8.62273 40.5244
2.91189 14.6951 48.0113
2.9565 9.03863 34.936
1.93677 6.35845 28.3839
1.97626 9.95119 42.058
2.74592 13.1138 47.1915
2.97225 10.5789 34.5136
2.1071 9.35963 38.4636
2.76892 12.1612 45.163
2.82773 7.16649 54.9154
3.52642 14.7288 55.424
3.27694 11.9706 43.8752
2.90419 10.7859 33.0455
2.35321 7.25612 35.7208
2.40725 10.3914 37.7713
2.21924 7.78099 35.9682
2.71406 8.7523 33.6106
2.19374 8.82799 32.9565
2.22093 8.84785 41.032
2.48476 8.16074 24.2051
1.64428 9.07735 36.6778
2.43492 7.91057 26.9383
1.81785 7.21202 40.3944
2.58914 10.6092 44.1976
2.66339 9.9509 39.7248
2.39387 11.4938 51.2077
3.59904 7.39492 30.5185
2.03377 8.72147 29.3719
1.97868 10.085 38.3644
2.36981 9.46333 39.8919
2.53161 12.8949 42.0029
2.51504 9.14155 39.8112
2.6072 8.27513 32.5255
2.17646 7.31512 27.2797
1.83994 8.56407 31.506
2.18456 8.02779 54.633
3.68616 11.7809 38.1667
2.3217 8.73581 37.881
2.4286 9.25091 36.6767
2.70873 10.1635 53.8419
3.16584 14.4254 30.9688
1.96167 7.56302 39.1123
2.42544 8.02654 33.1481
2.38061 9.52105 58.728
3.8758 13.6111 37.4279
2.40365 7.54005 30.1232
1.94062 8.33988 30.4946
2.02786 10.2094 32.3421
2.31044 11.5201 46.9888
3.07494 9.86117 35.0482
2.49244 6.37562 27.127
2.11787 7.67745 45.3245
2.80114 12.7067 25.4892
1.63658 7.21908 33.0626
2.32933 8.02441 43.462
2.76767 8.63305 27.3826
1.75825 8.36395 42.7083
3.35892 0 0