# pn-170911/RbIIR-41-KOKB-1280-1959.psd
# Power spectrum* (dif=0,1,2) (really just |FT|^2)
# NOTE: only the first half! (symmetric)
# weeks: 1280-1959
# 7 clock-days, 0 excluded
# PSD: 1441
108.42 0.0179213 0.0366711
16254.6 0.378984 0.0346242
71189.4 1.41656 0.0344523
18825.2 0.475915 0.035308
12524.1 1.25733 0.0338789
4239.52 0.641162 0.0337643
6029.7 0.93611 0.0335688
4700.98 0.828248 0.0319015
2591.95 0.605722 0.0333588
2328.56 0.587556 0.0331673
1667.49 0.53377 0.0338647
784.113 0.316304 0.0342961
1267.7 0.747638 0.0310052
515.911 0.460828 0.0353276
1031.11 0.88525 0.0319063
884.987 0.6303 0.0351563
312.369 0.541907 0.0325115
649.879 0.735089 0.0356948
459.849 0.464679 0.0356696
882.775 1.0275 0.0375136
611.772 1.10522 0.0355357
330.941 0.645296 0.0345672
674.811 1.68768 0.0315035
654.181 1.88221 0.0431502
301.195 1.23154 0.0415081
330.467 0.760627 0.0320559
318.331 0.696587 0.0344645
222.683 0.566338 0.0390189
614.911 2.05987 0.040874
452.081 1.43249 0.0404485
540.506 2.06433 0.0207217
154.479 0.616438 0.0425353
1006.98 4.79457 0.0482159
170.937 0.922398 0.0436935
408.197 2.16529 0.0262482
177.726 0.942036 0.0486895
250.28 1.54861 0.0553308
162.986 1.08757 0.0420691
518.036 3.50201 0.0663683
244.211 1.67265 0.0411611
154.334 1.26502 0.0460471
317.349 2.16614 0.0619182
176.235 1.78219 0.04577
539.696 4.24863 0.0847012
241.9 2.15983 0.0691635
196.397 1.61774 0.0647635
390.908 3.71258 0.0976772
224.158 2.5978 0.0550151
179.221 2.36242 0.0770819
232.675 2.24258 0.0564062
317.275 2.94607 0.105366
153.964 2.0234 0.0513806
350.673 4.48012 0.0797354
204.724 2.51264 0.0612689
461.662 6.39617 0.125483
208.992 2.78818 0.0836715
341.404 4.48109 0.0720142
181.324 2.36344 0.0901227
378.988 6.28417 0.109645
221.967 3.18223 0.0964319
408.229 6.06114 0.132589
214.938 3.30598 0.153294
140.591 2.52358 0.0964208
194.907 3.39794 0.149514
189.113 3.94599 0.13092
231.396 4.31605 0.198419
174.961 4.58759 0.103798
156.596 2.98457 0.136646
153.892 3.12641 0.139884
170.921 4.10528 0.154483
360.435 8.56576 0.26848
213.093 4.18087 0.116632
238.545 4.50566 0.120535
112.815 2.62758 0.10767
79.5508 1.88342 0.0686823
263.108 7.10518 0.272408
201.758 5.97925 0.302924
126.796 3.29461 0.0739821
179.036 4.66576 0.149901
420.352 12.0442 0.401317
207.237 5.71845 0.284056
228.69 6.29695 0.224575
133.186 4.46205 0.172998
143.24 4.0849 0.194086
166.129 5.93892 0.263156
286.409 9.96986 0.414682
194.878 5.63798 0.276155
112.972 4.12204 0.237959
238.171 8.60157 0.439299
123.05 3.39118 0.163373
125.249 4.87155 0.304862
207.195 8.23811 0.395325
221.257 8.77656 0.425479
173.79 7.49942 0.341969
126.472 6.3472 0.275581
165.789 7.52578 0.313018
307.299 13.1201 0.66559
180.951 9.01067 0.512385
129.936 5.04983 0.192293
275.386 11.9992 0.401934
229.708 10.9292 0.581274
119.999 4.6137 0.301255
344.885 15.8049 0.838831
222.286 12.1796 0.761303
129.7 6.7583 0.548268
143.227 6.94248 0.3428
225.264 13.5071 0.939358
150.295 7.76716 0.452075
127.319 7.98958 0.458929
169.441 8.33676 0.424902
127.372 7.15945 0.434877
314.975 16.9811 1.15909
121.7 7.22834 0.389195
62.4596 3.43376 0.245913
194.407 10.785 0.875413
172.159 11.7588 0.929842
214.469 11.6086 0.863474
173.33 11.4944 0.661456
176.111 12.4111 0.89293
101.407 6.51479 0.516311
274.489 16.8557 1.13495
322.64 21.6276 1.4113
244.847 18.423 1.48587
111.076 7.6088 0.570402
151.332 10.5979 0.741033
194.329 14.0262 1.00101
249.089 19.4094 1.49338
96.5838 6.95842 0.459987
165.665 13.2929 1.11004
117.943 8.68181 0.674641
97.3085 7.78179 0.675591
100.224 7.58465 0.757919
149.775 12.6283 1.04775
59.556 5.28168 0.467449
114.667 8.96184 0.730946
82.3435 7.22838 0.595559
81.9471 7.43306 0.784603
109.522 10.8564 1.1641
91.3812 9.90692 1.06398
140.858 12.3514 1.09302
82.4875 8.52707 0.804846
68.8305 5.95154 0.601837
86.6849 8.9835 0.821331
129.396 12.6711 1.07308
116.608 11.9424 1.4011
37.2366 3.5512 0.42948
65.5433 5.83171 0.609821
117.265 12.5197 1.27577
114.172 12.2992 1.3205
66.0805 7.06342 0.611925
166.711 16.9313 1.84233
49.4169 5.84474 0.697728
40.6343 4.53695 0.563999
189.692 20.008 2.0481
55.049 6.9243 0.755457
122.16 13.0433 1.52371
132.729 16.1345 1.90843
49.9825 6.92307 0.942815
127.802 15.5779 1.64673
66.5707 7.42826 0.829208
137.777 17.3175 2.34281
104.125 13.4606 1.6063
94.6121 12.4141 1.77413
115.031 13.5905 1.54909
70.9648 9.99724 1.17692
123.924 15.9938 2.31386
107.473 14.2635 1.74517
46.415 6.29268 0.936846
107.445 12.8811 1.66428
78.9704 11.2543 1.73318
71.5364 10.5253 1.55991
38.3987 4.51514 0.808289
170.247 22.0142 3.0074
72.099 11.9052 1.80774
98.5414 14.4052 2.31797
181.344 26.6962 4.13091
45.6144 6.51762 0.914964
66.2204 10.8427 1.98953
97.0185 11.8462 1.38977
72.8691 9.83581 1.40662
52.5597 7.7138 1.10488
117.105 19.969 3.7433
150.217 21.5111 3.34688
31.4812 5.09955 0.773235
56.9229 9.31067 1.47113
47.3413 7.66075 1.23751
72.355 10.5905 1.9852
205.901 32.8243 5.58677
145.598 21.3229 3.60245
67.1037 10.7056 1.8953
158.85 30.9553 5.93976
124.025 18.7323 3.34089
68.1514 12.1578 2.25817
87.9684 15.4837 2.70817
122.798 20.8574 3.29665
29.0645 5.57799 1.10493
84.5354 14.9068 2.47491
35.0918 6.07653 1.00204
94.1265 17.0445 3.45342
75.4017 18.0772 4.04942
123.381 18.9297 3.42518
174.645 30.8308 5.30009
66.9227 11.9662 2.32573
45.074 8.55531 1.75762
63.7003 13.8592 2.71093
67.0863 13.4739 3.06077
89.8566 17.441 3.18791
29.5718 7.15737 1.59596
62.3644 12.8824 2.64631
74.7841 14.8863 3.24255
23.2154 4.36775 1.11754
78.3965 17.6866 3.7641
64.1208 11.5282 2.26982
101.05 20.8872 4.80099
96.4281 19.7651 4.1303
32.6034 8.06157 2.0158
78.3868 17.6679 3.87006
41.4574 9.45974 2.15299
62.8217 14.6346 3.2702
33.8795 9.30621 2.38562
67.7439 13.6115 3.36578
40.6543 9.70144 2.25885
50.8907 9.7351 2.06842
81.9448 20.7629 5.26126
83.0073 17.7923 4.24026
87.3804 18.7254 3.79591
60.7104 17.098 4.64607
42.9826 9.9917 2.19307
43.2996 10.5733 2.30848
71.4092 15.2191 4.00594
75.9681 18.0664 4.04467
62.6585 15.6228 4.65806
80.1442 20.6656 5.67593
58.8589 12.8852 3.55901
63.988 13.3284 2.45515
98.0784 25.8389 5.98673
48.5314 14.4064 4.17791
59.342 15.2361 3.3947
28.024 6.92213 1.60439
33.8419 9.53611 2.26512
67.5384 21.1239 6.1117
36.5583 12.726 4.23262
91.3559 23.2113 6.1584
81.1286 22.2606 5.95952
59.1503 14.1272 3.80065
77.6252 20.3138 5.32483
53.1185 13.9598 3.66951
56.919 17.1844 5.06469
79.1262 21.1473 5.58841
64.5617 17.9373 4.68086
59.0928 19.4911 5.94829
65.0166 18.3867 5.29991
58.4222 17.4593 4.74179
31.8017 11.8878 4.37865
42.7103 11.0784 3.86716
49.8358 14.4081 3.89086
32.2702 11.6548 4.46316
59.7599 15.1091 4.18863
56.7868 19.1242 6.35197
38.9874 9.95902 2.70196
63.7459 17.0557 4.71305
49.8507 16.88 6.00952
37.7342 11.9432 4.17457
56.4493 17.2587 4.94079
58.6504 16.8861 4.50621
49.1116 18.453 6.86577
43.8845 14.6307 5.34627
89.3151 28.6985 9.29526
63.6739 19.1822 5.66724
30.1814 9.25597 2.33568
37.7956 15.0545 4.6089
13.2148 6.69208 2.94031
52.3103 15.3463 4.94273
67.3197 25.8157 9.26056
78.1854 29.5749 11.1102
47.8333 13.0294 4.19181
49.4721 14.8421 4.76675
34.3719 11.2872 4.2073
26.873 10.8774 4.43101
65.5603 24.4475 8.40141
28.4865 11.605 5.08277
61.3712 19.1227 6.73469
41.0948 13.4986 4.40676
73.0605 32.0833 13.2347
35.454 12.2277 4.64199
37.6117 11.2562 3.24233
65.3433 27.7954 10.6272
36.5216 12.4357 4.85185
51.7655 18.7494 5.99496
23.6385 7.53329 2.54319
66.1399 24.4976 9.30934
34.4222 14.5419 5.67695
30.3275 10.5837 4.29522
46.1013 20.4306 8.50618
35.2795 10.8394 3.81572
31.1278 11.9247 4.76108
25.789 9.819 4.98368
73.5844 27.7862 10.0635
33.609 11.9664 4.5013
55.3776 19.4276 7.12636
37.155 17.1387 7.11447
25.9385 10.4399 4.98662
32.5438 12.6474 4.49114
51.3185 22.1647 9.57965
25.525 10.0451 4.2483
69.4333 31.7771 12.5472
24.1963 10.3654 4.41553
23.3208 12.262 5.69891
13.2787 4.17266 1.70898
24.8412 10.4674 4.55998
23.9362 10.1473 4.88327
30.5663 15.1971 7.42558
44.3955 16.9327 7.28993
50.5018 23.6811 10.3086
27.4429 12.4232 5.41282
52.4201 25.7093 12.2689
30.3882 11.8102 5.28487
19.7925 10.5188 5.87797
46.3261 22.2876 11.0705
52.9511 19.8817 7.00118
53.3856 25.6231 11.7399
31.2184 16.4068 8.14109
22.9675 11.7948 6.05789
32.1758 16.465 8.23527
47.648 21.6729 10.2743
41.6976 20.93 10.1467
79.623 41.6199 21.8791
47.6012 20.5858 9.95049
19.3612 9.8512 4.8992
46.3345 20.8046 9.38989
17.7265 9.62689 4.63495
20.3612 9.27463 5.25206
18.8318 8.9225 4.28528
29.6112 15.2442 7.24784
30.4112 14.777 7.63085
26.3852 12.1034 6.03064
39.998 20.2147 11.4403
29.2632 18.5105 10.639
25.3997 9.60257 4.35382
29.5937 13.8802 6.77922
13.5907 7.53554 4.70236
23.7514 10.6256 4.41577
23.7055 15.6631 8.77704
26.2323 13.4875 7.08225
23.3642 11.223 6.432
24.0461 10.6991 4.78891
18.7436 11.8942 8.0457
19.7107 11.674 7.08318
26.7915 14.3415 8.85797
25.9962 15.7882 10.2995
31.8284 13.0052 5.98463
49.3997 27.1211 13.9001
18.4612 8.28543 4.22843
37.9907 20.3267 10.8076
25.4222 15.0505 9.58781
29.5002 16.5111 9.52448
17.5207 11.0031 7.56705
70.6153 43.8663 26.7703
39.5381 16.6215 6.44128
40.3515 23.0466 11.4885
27.4323 17.7928 10.7037
33.3116 16.9685 10.4004
35.4224 16.9735 8.17423
33.5941 19.3693 11.0784
29.3816 15.9813 8.2496
33.7956 22.5688 13.4821
17.3684 10.958 6.93043
22.771 14.3364 8.93454
16.2028 11.2159 9.20264
33.3375 17.1319 7.9975
18.1069 11.7206 7.70566
19.0701 12.4675 6.79835
14.0403 8.82603 6.43157
36.6283 21.7578 13.3642
34.7014 21.8154 12.9094
14.6513 7.10991 3.92609
36.6191 23.1469 13.6055
34.6455 24.129 15.3102
31.4509 25.717 19.5113
24.7086 12.0384 6.96176
20.9013 12.2425 7.81795
25.7169 17.7417 11.9182
28.1786 17.5952 11.9382
54.9742 34.4572 19.6488
26.9076 16.57 9.21838
12.9195 9.92554 6.66888
14.5553 14.3845 12.5769
21.7009 12.0166 6.55249
21.498 12.9374 8.10309
27.7519 17.2737 9.66014
21.2205 15.593 10.9098
16.8782 10.9386 7.24362
13.2592 12.3693 9.48169
13.8135 10.3804 9.37331
14.574 8.35302 6.13144
22.3533 16.2481 10.8796
10.0224 9.35435 9.51876
19.7434 12.2891 9.1547
24.086 11.5154 5.75384
45.7548 32.8399 20.5242
22.6077 17.7985 13.6331
16.4238 10.1177 6.944
16.2621 10.2295 5.55404
19.0242 16.9005 12.787
19.5966 14.0822 10.6077
13.8175 9.52002 6.92819
40.5682 30.2913 20.631
23.5536 19.7079 13.782
14.3888 12.1047 10.3632
17.4322 11.2674 9.26836
20.9476 15.3585 9.50454
25.2309 21.2622 15.1428
7.01661 8.53576 8.66485
17.4203 12.4347 9.77114
13.3708 15.6416 16.6212
27.5129 17.5964 13.0186
16.0302 13.4355 11.8745
32.6693 20.0553 12.8456
23.8233 16.1211 10.8045
14.3158 8.48335 4.60825
16.551 14.0601 12.2326
30.7579 20.6071 11.679
15.0748 13.6306 10.7532
7.13947 6.86163 7.80503
27.3268 23.1747 16.6189
18.2965 16.2439 15.027
25.9529 19.8718 14.3105
17.3442 14.582 11.6256
28.3234 25.5639 22.4075
16.7894 14.918 14.2084
22.0327 14.8822 10.3102
15.052 14.7315 13.7718
29.6777 22.3333 19.6541
26.316 20.8976 15.3742
17.9179 10.8975 8.29022
41.6763 34.2884 27.3858
12.0984 11.8177 11.8887
9.27526 5.04906 4.24732
20.39 17.9684 13.8501
20.8156 15.889 11.1707
16.636 14.7913 12.4252
14.3231 11.264 10.6914
24.2433 21.4205 15.7095
7.03054 6.32489 6.56136
29.0211 33.2838 30.5819
28.0711 20.6451 16.915
10.9698 8.54983 7.46503
17.4209 14.8568 13.822
11.7239 6.22082 3.8775
19.7411 20.7654 19.3419
15.7973 14.0672 15.2822
30.3485 22.8583 17.5235
14.7502 12.4569 9.49991
12.4409 13.6087 13.4835
15.8857 13.6952 10.3419
3.05725 3.65713 4.55259
22.0718 22.3418 18.9083
12.0937 13.245 14.6012
15.9201 15.3518 15.6988
22.4432 21.4228 19.4466
17.0128 14.2664 13.7193
23.0379 19.773 15.3302
9.20608 9.19099 9.88659
11.5792 10.0168 10.2428
13.8106 10.9535 9.79373
9.24408 8.19707 5.98456
15.7013 20.3974 21.5024
18.324 16.9575 17.7463
14.6833 10.5453 7.62109
9.93369 10.2827 10.9189
17.9315 16.6575 14.8787
19.4594 15.0777 12.5902
7.63741 8.7111 8.77448
19.779 23.6533 28.4086
21.8878 18.9133 15.8209
9.84287 11.2312 12.6096
12.7239 12.7703 14.5693
22.4414 22.3344 19.8283
9.50008 9.9641 11.8359
9.577 10.604 14.8972
23.8624 17.5314 12.1069
17.8686 18.8278 16.8662
15.0819 16.6642 18.955
26.2224 25.7663 25.8009
24.5108 24.7015 22.9107
8.84244 13.1044 17.8423
15.4958 9.93084 8.25583
26.491 30.6257 30.3639
16.4112 16.4073 15.2066
11.2511 10.8119 10.3608
12.5939 14.6886 16.7963
6.55194 4.79584 5.9476
19.7388 23.9546 25.1179
15.0083 14.7845 15.5844
15.5463 16.1193 14.6252
17.6307 23.9679 26.7437
18.52 14.4886 11.8355
11.305 10.1221 7.93741
12.1516 17.2529 20.1399
15.1328 20.0554 23.5524
13.1562 10.6021 9.56846
8.90541 13.583 16.7469
9.10892 10.364 15.9717
18.5497 12.113 7.3697
17.6114 18.6657 16.2056
14.791 21.9035 25.6504
11.9069 14.0317 17.8153
10.3408 7.53787 7.31475
8.32555 13.2045 20.5591
24.7448 24.392 22.3861
7.6592 5.44765 5.00513
15.7811 24.4494 35.2081
23.6474 18.727 16.3358
9.80011 10.6216 11.4784
16.9024 19.4345 21.3791
7.44001 6.69744 7.22623
12.6737 15.5966 16.6095
9.92766 13.4152 17.5576
17.4981 20.4014 21.9147
9.56163 9.75138 10.4907
11.0377 15.0973 15.3406
7.5627 9.23848 9.43783
9.09566 19.6548 31.2682
20.2277 17.5628 17.26
12.3025 13.7033 15.9231
13.284 15.6286 14.9587
6.57663 8.08997 7.25261
5.54267 9.59487 12.5911
6.60926 8.34852 9.90555
8.47204 13.9681 18.0637
5.87305 6.94306 8.92876
6.5078 10.5323 17.4417
7.66692 6.8235 7.54853
6.25277 9.36747 15.5195
10.4478 11.1503 16.4136
15.762 14.3165 11.855
7.086 12.6302 21.1411
14.9431 14.6248 14.8006
13.9104 19.6138 25.0616
9.83252 10.4554 13.7903
15.7395 19.7452 23.2817
8.93877 9.50116 11.8775
13.0612 14.1251 14.4504
7.51664 11.7437 19.5632
10.9034 9.69861 8.95925
7.01918 10.2841 14.8832
11.5537 17.3952 25.8648
18.0889 18.6257 19.1656
13.2566 18.9945 24.7722
14.9627 19.771 22.1016
5.54108 8.26456 15.3914
11.4405 10.561 11.916
8.65346 13.8986 21.5168
11.6138 11.534 13.7027
11.0484 13.5057 18.0408
13.7119 16.461 17.6477
6.79218 10.0682 15.2868
8.86005 12.3902 17.6629
11.2145 16.4438 24.8349
15.7334 17.081 20.2818
14.922 15.7417 17.7197
13.0465 18.4286 23.3969
4.1124 4.72547 8.14497
10.2732 13.8662 21.167
20.6683 28.0239 31.3804
6.42876 9.39002 17.0316
21.8783 26.071 31.0366
10.7958 14.1814 17.1716
7.75051 12.7543 18.8706
11.0421 17.232 23.3248
5.37816 8.88418 17.8459
12.4528 14.9685 21.5115
14.0475 14.2433 11.7076
7.18563 11.2944 15.4347
8.99658 14.5455 20.1242
10.8345 19.0491 31.1113
15.8591 19.4642 24.937
11.2159 14.4499 21.1237
8.99899 9.41129 11.3269
14.4191 24.5257 37.2182
19.6564 29.6051 40.8961
16.0955 24.7149 37.3077
12.743 14.8828 23.4214
13.3078 11.3608 12.9971
16.5688 27.1635 38.9549
20.6301 25.9551 33.7529
8.61826 12.9395 17.3646
6.99969 10.1958 15.9116
6.21389 7.99079 13.0902
8.43689 13.5554 22.0861
10.8068 13.5646 16.0862
5.55578 7.2113 10.3555
4.34094 8.1599 16.0035
10.4463 14.6783 26.4525
19.6903 23.9096 25.1909
8.9546 20.5223 40.9274
14.6889 17.8536 25.9631
11.9572 17.6676 29.9078
12.2838 11.6421 15.6291
13.8429 16.7045 19.5507
11.391 14.3595 14.4601
5.57415 8.53333 13.3894
10 18.0704 29.2103
8.09143 14.5792 29.0775
13.6076 15.9729 21.5373
13.3914 19.7733 28.9371
15.6588 18.9512 20.8344
3.63242 7.06796 14.9182
5.85087 7.26757 16.5113
15.4894 19.2003 25.3217
22.6375 36.2048 46.1229
11.4028 16.3974 26.7443
10.603 16.4541 23.1145
7.66403 10.7548 12.5525
6.24216 11.6038 19.9975
5.9 12.8353 28.2329
13.8574 14.2603 15.2357
12.3073 21.391 31.2107
8.39504 14.3453 24.7548
3.34958 5.15952 16.6251
16.8082 27.6334 38.5065
8.02947 11.1858 19.3328
8.37222 10.7424 13.08
11.2336 24.5487 42.1631
10.1839 9.51843 11.8575
6.40757 9.72663 18.5065
12.0464 19.6297 27.9982
5.52318 8.26492 12.0696
5.64682 9.48431 16.8212
7.36769 15.1822 30.4425
11.0396 13.8946 20.492
7.67783 10.096 9.24653
4.12635 8.61928 14.5458
7.69638 12.972 17.6687
4.36133 10.1151 22.3785
7.84114 13.0286 26.7844
12.1637 18.3965 28.261
9.95027 11.3741 12.7592
5.40132 8.64022 13.1258
7.09603 13.2394 21.753
7.4564 10.9925 17.6388
8.58816 18.4414 34.7428
7.74246 8.66058 9.41136
1.51576 3.69757 11.4829
15.7428 32.1138 45.8728
6.03596 13.0745 33.8068
15.7935 26.0127 36.7776
3.69651 6.02309 17.9713
6.95664 8.44608 14.6169
6.48353 11.6377 26.8439
14.8017 23.4317 38.8375
12.208 16.6206 22.3372
6.24305 10.6018 22.8317
5.43822 5.3516 11.4362
9.21904 11.8106 15.3374
9.06213 16.0731 26.9403
6.74753 10.0614 24.0947
17.8566 26.1077 28.0996
2.4312 7.37161 19.5841
6.22951 11.7302 24.1657
7.90025 10.1335 16.4732
6.51115 8.69559 12.3533
7.48107 13.118 25.6761
11.5535 19.0599 33.9441
10.3781 12.3854 9.94342
7.64934 19.192 35.2519
7.69232 15.0135 32.2691
11.0054 17.9471 30.6911
8.96276 14.4079 20.1994
3.25806 12.8207 40.1551
10.3288 10.9662 13.3735
7.01097 14.1286 33.1577
9.66903 9.3747 12.7798
13.912 22.0091 28.4491
8.76449 20.7881 41.1126
7.89168 8.05841 11.0537
7.28607 12.7782 21.5416
10.7939 18.5423 25.8288
4.98895 12.7675 30.6593
8.22238 10.1302 11.3345
4.03386 10.6492 22.4941
5.29562 5.71085 9.3573
9.42564 20.4572 34.4943
6.5175 9.94028 15.9018
5.72311 11.3466 18.3835
4.95162 11.9974 28.7735
10.9294 16.544 21.0883
5.80801 13.8235 32.405
7.41124 10.9629 15.4657
5.58614 12.5841 24.7573
4.65293 9.21214 20.9111
9.22666 14.7523 24.398
2.96036 3.53451 3.3113
2.19033 4.55913 7.94521
3.40298 7.53274 14.8724
4.94277 12.3136 32.6832
8.2351 10.1687 13.2331
5.74923 11.657 18.5682
7.60292 15.2016 28.449
8.8534 19.0464 35.2617
5.94283 11.1821 19.8893
2.35691 6.42667 18.108
6.79442 12.2957 24.2805
6.63087 12.5609 21.5414
3.75901 7.0783 16.2917
4.07312 7.52062 19.462
12.1612 24.8081 45.6813
7.00338 8.33554 15.0001
9.87133 18.3911 28.2662
3.37664 8.93297 25.5526
6.60144 9.15687 16.0968
6.37611 11.1714 11.7043
2.73881 10.3425 27.6567
5.83247 9.71781 25.9251
10.5252 18.794 30.7286
9.77843 23.2794 48.6954
8.23507 11.8842 19.6237
8.77513 17.7786 25.8242
3.25768 10.3328 26.1732
3.60402 8.13884 30.5475
11.5226 17.636 26.8441
5.78617 11.5295 23.5079
4.73082 7.25541 12.0468
3.94212 6.83392 12.33
5.63579 10.5791 19.7384
6.16165 14.0628 27.3434
6.20008 13.2318 25.9956
4.47478 9.16717 23.7446
9.56635 16.199 25.0622
5.89889 14.3335 26.2332
7.9476 27.0417 68.7662
11.4363 13.1464 21.0024
4.51683 9.34083 21.0649
7.53684 15.2535 26.5267
4.92665 10.1146 20.4198
2.34955 4.92115 17.0213
7.76748 17.6491 38.8889
7.0335 11.036 21.5408
7.22806 13.9632 22.5704
4.37953 15.0692 42.9015
9.9593 14.1392 23.7258
6.38211 11.856 24.3132
5.56142 11.0244 20.4272
3.53874 6.34688 11.3029
6.1321 14.0101 22.0654
2.79569 8.45692 19.7095
4.33566 11.4088 25.0584
4.05593 10.1228 21.2516
4.35091 12.1631 28.8438
2.59615 5.20805 17.6259
6.42469 14.1167 36.1591
6.81492 9.15093 11.9157
4.73917 12.2738 24.2238
5.92154 13.5419 26.2909
3.24292 7.64316 21.1296
6.8547 15.0469 32.7849
7.63373 15.3818 23.8948
2.31883 6.4453 19.7986
6.6846 15.7737 34.1101
5.48121 9.16105 18.441
3.0482 11.4885 42.3844
9.22811 10.6596 13.8884
5.21946 10.6287 19.0922
9.71727 28.9709 68.0336
7.9828 12.3494 26.5091
10.328 24.5534 45.3144
5.07925 8.29182 17.2436
4.27578 8.54006 18.3719
7.87047 20.7604 30.2562
3.12843 16.4708 47.577
4.59131 3.66801 11.2779
6.9972 18.475 45.903
5.88945 8.5877 16.1471
5.60549 11.224 19.0416
4.05361 11.6388 29.3716
4.02504 8.80294 17.2411
1.9218 7.28826 31.5463
9.28878 16.3823 26.2917
2.72735 6.39454 16.257
3.08407 6.13539 14.0768
3.64738 6.92211 13.5789
4.2054 10.801 23.0251
3.56395 8.87451 17.6
2.14554 6.22818 20.3239
3.21442 8.81162 26.1866
7.4276 21.6843 58.0585
8.3727 11.1937 23.4703
7.16912 19.5944 44.37
5.55416 7.67625 15.6742
2.71205 5.72558 10.5796
1.65329 3.95943 14.582
2.98898 7.00861 23.1722
6.8742 14.679 32.2346
7.77078 16.7723 33.3011
7.4442 15.8298 27.3713
3.41405 6.2836 10.2593
2.17413 6.78797 20.7448
5.74368 12.2332 22.9544
5.36728 17.4296 39.9047
3.77179 8.15084 18.1015
2.69259 7.67539 20.6101
2.10545 3.1689 9.79969
4.09242 13.2868 28.3546
1.84588 4.34611 17.1171
2.82967 6.41459 18.2072
3.62592 8.58855 21.268
4.11321 7.74629 19.8538
4.4389 12.5742 41.4955
9.7301 20.6286 44.6581
3.90002 6.053 21.0628
7.19283 15.1244 23.6309
4.1091 12.5423 35.9769
5.08604 9.43252 32.7514
8.73215 19.5649 33.8173
5.73035 13.1946 23.5848
3.8916 9.59509 20.8418
2.69664 8.249 24.9046
4.07068 8.8369 20.5884
4.46399 11.3845 26.1282
4.64319 11.5667 30.2147
5.71684 13.5245 22.9542
3.178 14.2581 46.895
6.54048 9.81968 15.541
3.87178 12.5365 28.5626
2.85476 9.74377 34.6719
5.15203 6.71802 6.40556
3.64107 17.4044 48.0755
4.36283 6.58117 18.5202
3.88584 11.4263 31.349
4.47423 10.0541 27.8823
7.24033 18.7352 40.2808
4.60141 9.68366 22.913
2.47708 6.03281 21.5031
3.64897 7.55155 21.6033
5.16842 15.1656 44.2153
7.68362 14.9536 33.5237
5.46209 12.051 30.264
6.2232 13.7826 34.4332
7.79151 19.9192 32.4227
2.72007 8.57366 26.9344
3.33262 9.24113 33.7629
7.07469 15.9471 24.6009
2.9777 8.58557 22.3233
4.31225 12.8315 28.6675
3.39592 6.80485 13.2981
1.68493 6.15836 24.5408
3.85641 9.01947 21.6756
4.12805 12.1701 34.3661
3.74918 8.30363 24.1188
3.96115 8.38537 25.7551
4.5014 8.1521 14.35
3.21568 9.06083 27.6197
8.49551 31.1506 83.1259
9.73968 18.6745 25.7165
2.13501 9.26905 20.8832
1.43904 7.37626 35.5602
4.98972 6.29255 15.0396
2.85165 8.40926 32.372
6.73326 11.9353 17.2631
1.83828 6.49888 27.5076
4.5043 10.9787 31.391
6.26535 13.5103 25.7751
5.18237 19.5133 51.269
4.58146 6.13441 20.9463
5.66902 14.3135 34.281
4.06816 9.30583 20.5319
3.44487 11.0649 34.215
4.68383 11.1832 15.4214
1.88111 10.1775 30.9163
2.93929 5.69332 16.9677
3.50829 9.31339 19.1004
2.56805 7.97046 22.5156
2.51683 7.13242 19.2175
2.82102 7.66687 21.274
2.47995 5.95313 9.19953
0.812659 3.82271 15.0774
2.33868 6.54284 14.689
2.43964 10.3246 34.445
4.56034 9.58997 20.4945
2.10053 7.18977 30.4404
5.64414 11.7701 23.1341
3.09116 9.77547 26.9183
2.02627 4.47956 17.9697
2.47278 4.66382 17.0538
2.78828 3.52595 11.5694
3.58038 7.29486 11.767
3.03582 10.929 26.236
3.15136 10.4243 25.5417
4.57258 16.9441 49.3994
4.48783 11.3591 45.6528
6.66242 12.4879 25.4774
2.82186 5.88332 18.0627
4.78704 13.5329 33.5232
4.90662 16.5222 50.6643
5.91049 9.93702 14.3328
2.72568 11.7023 35.8082
4.61674 12.7515 25.2699
2.80906 11.6962 36.2802
3.01415 5.48364 20.0919
4.20952 11.1505 32.7414
4.3307 11.9735 29.7611
2.68506 4.97453 18.5846
2.91419 4.77645 14.361
2.6547 5.96028 18.7195
3.81172 8.84868 14.5382
2.44209 12.1091 36.7679
2.31627 3.17265 16.9154
3.83797 9.19676 25.0009
3.7991 9.4578 22.4962
3.32307 10.4695 28.0756
3.34847 7.25833 15.8053
2.24042 7.96219 16.9693
1.52023 7.85958 35.3063
3.67728 10.267 34.1366
5.05169 12.639 23.3912
2.87815 16.6182 62.794
5.80174 9.95945 34.8416
7.0291 17.9146 43.3732
4.06004 6.56556 17.8364
3.3548 11.9109 31.9678
3.77861 10.2754 26.4137
3.20458 7.15437 22.0096
3.10442 8.09167 27.9323
3.92826 10.3555 32.2981
7.21873 22.386 37.0642
1.66794 6.34344 32.7749
6.19128 17.7337 38.5026
2.66137 9.21801 33.9277
3.68004 13.0364 48.5839
6.7699 18.4675 45.326
3.05687 5.07665 20.4474
3.68312 9.37515 26.1223
4.48496 13.9588 33.8734
3.05506 6.75079 20.0251
3.64695 15.7993 40.617
2.37499 4.22544 23.8106
3.97087 11.6377 33.3313
2.54069 3.73782 18.0837
3.73085 11.1493 22.9562
2.37691 4.88249 15.2755
2.47049 7.68472 22.6351
2.28309 6.67131 23.8931
3.204 5.65531 10.686
1.94665 9.70333 31.5482
4.10939 9.41265 26.2045
3.38808 9.6383 24.3138
3.37781 9.32726 28.0915
5.01617 16.5943 33.3556
2.60801 10.0724 46.3945
6.00718 13.6786 20.6719
1.67384 9.19477 38.6086
4.15434 7.35358 17.8906
3.24391 15.0229 43.6531
3.24197 6.46401 16.0726
2.89151 13.0421 35.0747
2.24591 5.87635 30.1399
2.71623 3.58861 9.90702
2.52703 9.80761 27.4265
4.01186 14.0862 41.8742
3.30858 7.07807 26.4569
4.09999 10.1864 14.9589
2.03274 13.4545 48.2932
6.18042 16.9583 42.2074
2.5397 5.62613 18.9226
1.92764 6.042 26.0965
3.33059 8.40418 15.4869
1.01361 4.54293 23.5892
3.33341 11.0574 30.739
3.05918 8.3708 24.3193
2.01889 4.06262 19.7484
3.73323 7.91593 11.2785
1.68831 12.3905 48.4884
4.10534 7.81555 20.0617
2.8471 12.6449 39.1224
2.78524 6.2348 28.8955
3.91958 13.4913 29.5672
2.68175 9.09362 31.6559
2.7784 4.46421 6.8178
0.936463 7.73078 44.9788
4.42679 8.77884 25.9507
3.67123 15.4506 54.0497
5.50668 9.19821 10.2882
1.67765 12.0733 43.6819
3.37514 4.57873 24.5907
4.14867 9.19699 27.2254
4.88048 13.612 24.7497
2.39394 8.90768 20.7756
1.83718 9.51655 30.7236
3.0338 12.6248 47.7544
3.39914 10.1594 47.0203
5.00982 10.2647 21.4826
2.54054 5.92608 19.7806
3.96815 15.0997 38.3571
2.02675 5.91302 22.3735
2.35872 4.70335 11.3901
2.03311 9.19297 24.7556
1.86355 3.92845 14.6845
2.06768 7.8812 20.928
1.80986 5.82657 21.3895
1.804 5.22655 27.635
3.7305 9.89509 24.8525
2.23055 5.69603 17.1821
1.66759 6.63884 28.2979
3.3243 12.7131 51.0828
4.48357 7.42443 16.2169
2.54955 10.5327 50.1939
5.93607 10.693 32.7709
6.96084 30.0267 78.2254
5.56155 13.0047 35.2593
3.18465 7.96358 16.7491
1.85286 7.96551 31.7397
3.0066 7.04792 16.7823
2.8501 10.6035 23.5298
1.51667 6.87978 25.0021
1.91281 8.34353 30.4457
2.28064 4.65836 17.7193
2.47031 11.2203 33.3101
2.83259 9.33726 34.7974
3.79454 11.6643 35.8521
2.5949 6.23246 20.8403
2.63211 10.0181 35.9653
3.9374 14.4052 37.4015
3.41302 16.2696 59.7253
5.06364 11.4738 28.4232
2.77398 12.2906 47.8431
4.03215 10.5744 35.6414
3.30545 9.05217 14.1093
0.75927 8.0069 41.8973
3.21083 5.94069 11.7154
1.17637 5.02273 24.3049
2.79895 4.72604 5.9173
1.42949 8.98195 23.3878
1.29059 6.7548 35.8302
3.93034 17.6991 52.1089
2.69312 4.64651 25.8101
2.77172 13.0132 86.7639
8.79915 18.2719 27.8748
2.90744 9.8209 29.0728
2.07801 7.5684 34.0018
2.8488 7.75498 32.8748
3.37987 8.44153 19.0911
2.22548 8.73968 24.9131
2.13272 7.06438 24.1704
2.77033 9.98135 46.7887
5.14023 16.1271 34.5397
2.11062 5.74662 13.9655
1.65935 8.16921 39.7371
4.16967 11.4907 26.4492
1.77635 5.0729 13.9736
1.21863 6.61884 28.2564
2.10515 6.49584 25.7639
2.77463 8.62654 26.8239
2.57091 12.7116 42.9349
3.15892 5.41297 20.5114
2.35726 7.41848 20.3727
1.9961 7.24142 51.3958
7.19489 23.3357 39.6662
1.65038 4.28017 8.67764
1.0501 9.40527 42.4704
3.29618 5.18446 14.6325
1.78064 6.12907 21.2591
2.6689 11.6049 40.0398
3.27981 10.624 32.2746
2.31232 4.29195 10.3305
1.24717 5.78471 17.9106
0.974155 3.17828 18.2154
1.36644 3.46137 13.0699
1.3615 5.88972 21.2319
1.59375 3.70717 12.6877
1.77177 7.96904 29.8179
1.4684 2.61529 31.0221
3.6522 9.59603 16.816
1.51937 9.33413 37.8665
3.60911 8.72032 20.8953
2.08013 8.83945 25.5489
2.53796 10.8274 47.8026
4.87924 15.8299 43.8714
2.55636 4.97796 13.9981
1.03178 3.6145 9.94187
1.33574 6.64141 20.018
1.32906 3.73807 17.365
1.28285 4.50248 15.5795
1.12193 3.64443 17.3229
2.39674 8.99757 30.7662
2.26107 8.05659 19.3087
1.4931 7.2925 32.9008
2.50306 3.30088 15.8901
2.46985 11.1936 19.8137
1.62344 14.7699 70.8948
6.70916 15.5744 31.2401
1.78106 7.02926 28.3829
2.62079 7.34338 23.158
1.83172 7.58865 20.707
1.36529 6.00698 37.196
3.34973 8.27011 30.4977
3.04978 9.92629 21.7392
1.77498 8.28338 33.8257
2.34614 4.56487 11.8659
1.61217 8.41115 30.6649
2.49418 7.58932 29.116
2.66346 8.25078 30.6331
2.71498 11.9124 47.5672
4.05015 14.5866 41.0894
3.19052 9.95108 25.7682
2.01574 5.69466 23.794
2.13559 9.29159 39.5904
3.32801 11.2924 29.9488
1.90829 5.72327 28.7291
2.65533 6.89182 11.1482
1.25278 6.61944 15.9232
1.28793 9.44992 36.6571
2.45652 7.07062 28.7708
2.70839 17.6647 69.1574
3.75439 3.38915 36.7178
4.33447 9.69729 15.602
1.55339 7.42952 39.8613
3.05142 6.91862 24.1761
2.75703 10.3593 23.9984
1.53771 3.53712 15.6136
2.46147 12.735 43.8203
2.46636 5.49803 20.3328
1.99962 7.20521 14.2425
1.0656 5.37271 22.6552
1.79621 9.5111 53.2074
4.325 9.4025 39.756
3.17415 6.44127 20.5627
2.12631 9.55428 24.5702
2.01096 5.82755 22.6249
2.83071 11.6555 25.6204
1.50526 6.67202 33.9329
2.39252 8.81598 25.1134
1.66405 6.51893 32.8571
3.30529 12.8665 27.5294
1.48506 7.05603 36.4307
2.75908 6.72852 23.9908
2.26435 7.55827 26.2735
2.36704 9.94423 37.9498
2.81005 4.98348 17.6498
1.60867 6.80397 13.4837
1.72119 14.4215 64.2033
4.76381 11.8021 28.9106
2.74626 12.6588 21.388
0.456635 6.72671 46.7831
2.97286 6.13153 41.4871
3.3149 9.29511 24.2039
2.20474 10.1344 29.7288
2.01713 2.74658 8.01386
0.828057 3.45057 26.9691
2.85876 14.0393 42.1819
2.61824 12.1244 42.5237
2.68879 5.59474 57.7865
5.64195 12.618 40.7277
4.16942 14.5244 29.2598
2.29204 12.7891 28.7567
1.29113 3.48806 18.9429
1.35537 4.42432 16.666
1.39356 6.7792 32.48
2.29102 6.00728 26.0832
2.12951 8.49421 24.2609
1.21331 4.38394 34.6554
2.61256 6.88667 16.9376
1.60657 7.94603 46.5169
3.70145 9.13654 12.6253
1.12351 6.09733 18.6726
1.1014 4.78235 36.6623
2.58151 6.53189 20.1213
2.05494 9.42539 17.3909
1.2606 6.79419 19.7198
1.44681 7.92416 36.6138
2.54522 6.07091 15.4933
1.05264 5.02955 26.6211
2.35732 7.3396 27.7542
2.25719 4.29722 30.0483
3.76664 14.8918 24.1578
0.978936 3.68169 20.4196
1.65179 6.64974 25.2734
1.89428 5.71578 12.2575
1.34137 13.6628 38.1253
1.74714 3.25358 20.9421
1.85389 8.32502 31.3683
2.09996 10.6785 40.4829
3.0699 9.61302 29.143
1.90189 8.00089 21.0733
1.55381 6.66848 22.7831
1.41309 4.86199 24.9272
2.46318 18.1897 62.2892
3.80578 6.17217 21.5353
1.73691 11.0827 36.9036
2.1137 3.55955 19.8268
1.27249 1.45356 14.0754
1.38149 5.56328 35.8321
3.08335 8.30045 44.4149
4.23493 13.8423 44.7894
3.13084 7.67917 20.046
1.76446 8.89189 38.952
2.71529 4.94448 16.999
1.74855 8.35818 19.2225
1.6021 8.00918 35.7738
2.60234 13.2994 52.9312
3.63503 11.6569 44.4735
2.64921 7.19532 16.6172
1.34579 8.2421 46.7804
3.06544 10.2003 43.464
3.32922 11.5935 35.917
2.60418 9.22157 28.2944
2.03852 7.97703 28.2436
2.25945 14.8722 56.1435
3.64906 8.26828 30.2175
1.96356 6.10436 38.3509
2.60883 6.98791 48.6423
4.3543 21.1369 34.9437
2.33812 16.7533 80.7202
5.35832 15.2968 57.1978
4.06721 7.01711 15.1556
1.18585 5.68228 21.0755
1.29181 3.79689 41.5245
3.58704 12.4261 41.4094
2.78986 6.94837 23.7429
2.01517 6.3083 29.5565
2.41594 9.8607 16.6242
1.05717 7.73883 29.1349
1.99717 5.57284 25.0014
1.46702 7.06159 27.1528
1.81778 7.28868 39.4915
3.05097 8.84225 39.1204
3.07389 10.5014 55.7221
3.97034 12.5183 23.1732
1.46577 5.30571 29.9553
2.65708 10.4268 37.5161
2.96053 14.1058 47.1554
3.08409 7.30945 22.2454
1.40932 4.47147 18.5933
1.40085 3.52778 10.8931
1.02981 7.25913 30.1537
2.35062 5.28453 19.2436
1.51015 4.2678 20.4866
2.16892 11.0262 38.636
2.35547 7.02385 23.4498
1.66703 7.55455 29.635
1.79034 10.4429 34.4466
2.04073 5.56276 19.8415
1.37446 2.33754 16.7382
1.45648 6.43188 23.7758
1.78134 12.1125 34.4767
2.23173 6.07053 43.3304
3.15293 6.04767 18.5425
1.77543 11.8081 35.5366
2.09673 5.22569 51.4578
4.38197 11.6656 24.5417
1.9622 10.3358 15.3271
0.806468 3.94982 20.0108
1.0008 3.53872 19.6137
1.14393 3.87981 18.0747
1.15888 7.63668 39.0146
2.86758 8.82345 37.1848
2.5272 7.6497 22.2815
1.64725 7.84186 58.1838
4.88037 12.5469 33.1857
2.39638 10.284 42.7669
2.87985 7.35195 20.6368
1.90626 8.94387 15.2022
0.964358 7.75879 35.522
2.51506 11.8978 57.1188
4.03312 8.98112 17.3291
0.836155 2.74996 14.8749
1.08391 5.91044 28.9885
1.94868 5.51183 19.3716
1.75154 7.75737 20.5306
1.40321 11.0891 59.2153
3.96218 8.3324 22.2313
1.52505 5.65787 32.1198
2.14004 6.04672 27.6035
2.19042 10.266 28.341
2.10104 7.79266 22.0717
1.37185 4.12629 18.0202
1.31653 6.70097 40.0389
2.75513 5.91287 17.1536
1.41822 10.5415 39.7769
2.44167 6.10874 25.424
2.22502 18.5395 43.2545
2.28962 5.49661 47.6095
3.14853 11.0129 25.9073
1.32889 1.65746 21.4341
1.86951 7.10289 11.7222
0.61979 6.20536 24.9737
1.61443 7.31526 56.241
4.12003 10.7699 27.5755
1.79991 4.23701 37.0675
2.77456 10.2149 14.1295
0.862935 3.94786 40.1945
3.38741 16.6558 58.0906
3.76924 8.75498 27.1119
1.7276 5.69991 16.8719
1.22954 4.1347 18.6102
1.60507 7.34049 53.7559
4.22994 23.4362 56.4874
3.20955 9.50409 33.2107
2.21217 8.10708 34.1697
2.11317 10.7493 33.7005
2.02572 3.84702 28.0171
2.24453 9.69099 12.7027
0.877763 12.236 67.8919
3.75285 7.83836 29.403
1.88764 4.75742 43.5545
3.34987 18.7125 54.3474
3.17678 8.76374 15.8192
0.975149 4.18537 38.6214
2.62383 5.86293 20.9611
1.70881 8.56766 60.5892
3.99631 13.7374 17.0637
1.0707 9.11948 35.5405
2.31014 9.66062 29.6218
1.89509 3.10327 28.4451
2.29141 14.6685 51.5534
3.23845 5.39888 27.509
2.17781 7.35372 21.7338
1.49054 4.58254 10.6358
0.642666 2.95978 26.3995
2.11334 7.7333 14.843
1.02354 3.48368 10.2624
0.736676 4.54946 20.2899
1.24489 6.16089 29.5366
1.83657 4.03023 20.9014
1.54946 8.64434 15.6941
0.845053 3.25462 23.5766
1.40674 3.17613 12.8327
1.00795 3.01904 22.0598
1.60325 4.99395 11.5782
0.996077 7.96068 22.7936
1.27969 5.15403 21.7016
1.40211 5.23524 17.7489
1.35686 9.22425 28.0615
1.44503 4.77706 21.1548
1.21413 3.88534 18.7017
1.36243 7.06175 28.4706
1.89674 7.61923 35.3751
2.18308 7.27857 28.8662
1.66152 6.4673 17.0618
1.13822 3.8202 13.6043
1.03572 7.03819 25.9207
1.70117 4.52562 24.8585
1.31859 4.30171 23.8167
1.62558 6.50809 23.9667
1.53641 7.74315 39.1381
2.82858 5.78402 17.1116
1.18393 7.97235 22.8155
1.36699 7.90137 42.0605
2.40802 6.10197 19.7951
1.20071 5.7909 28.3181
1.85523 4.81016 29.6207
2.26206 9.88509 52.1248
3.43787 12.5893 28.0479
1.88435 4.93987 15.982
1.20833 8.23046 13.8779
0.71691 3.8043 29.1347
2.0984 6.83554 9.40332
0.71486 7.85643 34.0408
1.9009 5.40304 33.4463
2.06289 5.47145 15.8768
0.982584 4.03601 14.3573
0.97977 3.38275 10.3037
0.588181 5.53346 57.8171
3.57135 10.9936 25.0152
1.6464 6.07282 28.7854
1.74292 3.55575 17.8595
1.07139 5.99035 38.1457
2.56484 10.6126 29.1672
2.06428 8.28477 18.8719
1.23345 6.51251 40.8812
2.53768 10.6489 25.3436
1.60992 6.89236 33.5029
2.01942 6.5781 32.4589
2.22145 5.69048 33.5466
2.37685 7.62305 27.4893
1.61643 5.83883 20.7629
1.2018 3.00275 22.4111
1.45341 15.2703 48.2061
2.78824 3.78616 34.9165
2.4605 12.816 41.8054
2.6116 9.86068 75.4047
5.12494 10.0249 22.2433
1.56692 7.04613 29.8786
1.91423 8.62776 26.6034
1.64902 5.38471 41.1788
2.97102 14.97 33.0029
1.91088 10.0147 36.3029
2.54526 9.30435 47.2593
3.22895 5.62951 12.7646
0.900106 4.8304 29.4327
2.04779 7.83108 25.866
1.54225 10.8028 70.6022
4.52933 11.6502 18.2126
1.38495 17.9264 63.5242
3.83757 10.1272 31.8883
2.20774 8.79925 25.7094
1.46711 4.09172 20.7388
1.2856 4.77585 21.8985
1.39309 10.0779 35.2146
2.18997 7.00325 36.5764
2.45246 5.31864 7.28758
0.437 7.1222 31.3549
2.00463 5.9759 43.9485
3.0659 10.25 19.1045
1.1849 4.02427 18.5666
1.09146 7.82072 28.6262
1.46083 1.19685 12.7865
0.680393 4.72237 15.8584
1.1412 8.26525 22.954
1.33254 1.36049 40.8139
2.74681 15.4594 19.5288
1.27167 7.64603 22.2148
1.5053 3.04978 19.0951
1.27581 7.4365 26.5854
1.65575 3.25717 26.4709
1.89992 12.1352 65.5997
4.0323 7.22488 19.6825
1.33504 7.28074 26.1673
1.82582 11.6728 54.4202
3.32963 5.54907 16.0023
1.05049 6.81829 23.6493
1.46853 6.28637 26.4842
1.81107 6.1922 18.6474
1.20685 1.5655 15.182
1.00375 5.54183 23.528
1.63411 1.72808 25.0043
1.8524 14.6002 22.0761
1.42029 8.56977 35.0445
2.03139 5.96816 34.4546
2.06498 6.12034 27.6643
1.72868 4.42006 25.9003
1.51481 18.5684 77.8634
5.20237 9.33039 35.3098
2.19333 6.16109 19.2355
1.04192 4.32546 32.946
2.00688 11.1982 18.3169
1.2073 5.96895 14.1716
1.0759 9.02433 34.3416
2.12302 8.17597 42.3598
2.65103 10.526 41.2266
2.50545 7.66138 59.5881
3.43608 0 0