# pn-170911/RbIIR-52-NIST-1280-1959.psd
# Power spectrum* (dif=0,1,2) (really just |FT|^2)
# NOTE: only the first half! (symmetric)
# weeks: 1280-1959
# 6 clock-days, 0 excluded
# PSD: 1441
102.257 0.0266916 0.0420506
16503.9 0.7121 0.0222477
108109 2.09417 0.090395
11912.9 0.592883 0.118251
65414.8 5.05746 0.104847
12584.5 0.940955 0.090475
5616.13 0.582961 0.110962
2743.02 0.329327 0.150038
6833.24 1.83258 0.0332291
3228.94 0.784411 0.0684652
1304.81 0.403111 0.0596083
1152.58 0.515123 0.0465062
2940.04 1.29419 0.0460514
1563.76 0.658732 0.0584626
779.283 0.670519 0.0811321
1309.79 0.767486 0.0428855
761.145 0.709849 0.156522
549.491 0.173917 0.114332
643.885 0.860154 0.0633516
592.72 0.708923 0.123772
840.94 1.51214 0.0757882
679.419 0.949677 0.114618
361.956 0.561516 0.034824
566.202 0.998171 0.111388
279.495 0.473918 0.0595602
239.327 0.612246 0.106254
399.241 0.786876 0.143583
478.958 1.73452 0.104396
247.031 0.731519 0.072925
338.224 1.00618 0.0980479
312.893 1.23534 0.173083
601.238 2.05042 0.0391358
275.396 0.663702 0.0661427
266.402 0.941814 0.0744522
424.98 1.63491 0.0388964
536.661 2.72587 0.0610909
297.813 1.47535 0.0865866
340.628 1.66811 0.0695899
248.221 1.07932 0.0556
110.607 0.934283 0.146367
293.549 1.40653 0.127418
311.855 3.30823 0.113947
331.144 2.5973 0.128192
307.585 2.51871 0.136614
489.682 5.51155 0.199457
223.355 2.2007 0.0653434
164.402 1.52081 0.145939
270.778 2.35453 0.101351
152.48 1.31053 0.0698762
199.151 1.69374 0.251224
117.034 1.88452 0.108947
226.712 2.63515 0.152632
247.175 3.38234 0.149256
343.653 3.45585 0.097772
241.464 2.97336 0.0626008
261.605 2.39785 0.0880651
458.198 7.70429 0.179746
285.421 4.35456 0.0726715
154.865 3.80018 0.13527
260.637 4.3281 0.257393
187.141 2.75513 0.141501
253.258 3.54285 0.117059
382.641 6.03232 0.309608
158.005 2.98663 0.163802
226.013 4.54333 0.0715878
164.532 3.96143 0.19561
329.454 6.67848 0.176248
64.4121 1.82974 0.0913469
315.603 6.46159 0.178157
347.074 8.24081 0.303991
230.594 4.26525 0.224025
61.5783 2.0657 0.119141
158.845 3.03251 0.307654
174.231 3.28036 0.142142
179.161 4.58294 0.232677
102.158 2.56041 0.197693
167.338 4.69373 0.198302
181.757 5.0537 0.193735
148.353 4.1155 0.122245
120.85 2.73092 0.131714
153.823 3.7852 0.129294
150.724 4.31672 0.219126
358.448 10.0403 0.390033
106.773 3.86768 0.222351
145.889 3.69076 0.119139
147.807 5.35272 0.346303
162.421 5.77033 0.267889
148.516 4.15344 0.203991
136.454 4.14419 0.253708
160.687 6.16992 0.265658
172.968 7.71066 0.40488
256.35 9.77116 0.32994
194.731 8.30229 0.441046
143.456 5.5863 0.32989
195.378 7.35901 0.311564
67.5885 2.13451 0.211756
164.569 7.85256 0.366948
259.84 13.2562 0.461436
254.861 9.95739 0.384583
80.469 3.84672 0.326939
139.194 6.54861 0.206347
133.509 5.18731 0.355065
279.798 12.8915 0.856842
79.6591 5.02851 0.295768
124.535 6.24315 0.43565
82.2122 4.89127 0.499672
225.723 9.43882 0.493603
126.651 8.50297 0.504417
110.247 6.19323 0.323376
141.286 7.67604 0.609264
231.23 13.4107 0.857885
89.6981 5.07067 0.343979
113.942 5.58461 0.537755
142.952 7.65713 0.557816
99.0425 5.52149 0.493715
147.275 8.20577 0.495199
69.5012 5.21377 0.270841
110.588 6.83075 0.610571
115.702 7.34223 0.488417
176.922 10.8068 0.779952
33.732 2.24899 0.27634
67.7092 4.36614 0.378957
205.134 14.6088 0.810058
70.6067 4.92985 0.227966
76.1797 5.32494 0.471208
85.6149 7.51445 0.692924
213.478 15.9141 1.30968
131.351 9.24365 0.902541
114.437 10.2091 0.687564
97.6701 7.89223 0.815347
83.3463 5.04256 0.449248
124.884 10.9281 1.26622
102.568 9.39122 0.940455
186.454 16.1298 1.57428
151.737 10.6246 0.73428
117.033 10.1037 1.32802
47.8481 4.12891 0.5231
138.275 10.4868 0.842683
191.032 14.6494 1.2127
156.946 13.1224 1.21129
107.491 8.08312 0.705832
217.763 17.3449 2.23644
133.65 11.5209 1.15301
60.9674 5.89328 0.625597
72.7282 7.91242 0.609298
112.075 10.5609 1.17817
73.7085 7.71529 0.508354
81.6781 9.93637 0.989531
90.1723 7.42823 0.774671
118.113 14.5369 1.46693
71.9605 8.06603 0.916062
164.235 18.0934 2.41043
57.8118 5.3625 0.657836
118.997 12.7597 1.84522
83.6 8.82269 1.20601
73.8423 9.56936 1.31187
104.199 12.6706 1.56567
41.7866 4.00584 0.534264
68.9732 5.77075 0.520683
35.9789 5.36637 0.738845
44.492 5.93222 0.914564
93.4391 12.3151 1.46028
52.071 7.81774 1.46496
131.783 15.1242 1.69693
191.611 22.5141 3.15632
189.268 22.4635 2.64636
108.493 13.4322 1.7953
68.2532 10.1096 1.04056
117.383 14.8941 2.36933
147.704 21.5221 2.57043
123.182 18.0443 2.12544
80.8304 11.3062 1.49409
115.846 16.6577 2.2449
22.1846 2.48102 0.294135
97.7818 15.547 2.31758
106.725 15.1044 2.29688
96.2782 16.2321 2.48764
82.2989 11.5713 1.52364
51.7931 6.2883 0.957215
110.911 17.8107 2.86225
84.4398 13.9916 2.33634
136.655 18.035 3.01104
114.818 17.3812 2.6773
28.4054 5.58268 0.920419
73.2635 12.2779 2.63202
56.8614 9.90964 1.91329
113.129 19.994 3.63918
125.626 17.5574 2.88155
88.45 13.8556 2.36972
71.7151 11.3291 1.85534
98.4491 14.6626 1.89847
160.905 24.5539 4.05948
79.9136 14.8195 2.29653
58.7452 10.3964 1.81408
111.675 20.0835 3.7913
104.674 18.2771 3.07609
87.2686 15.8816 2.75308
61.2559 8.55695 1.31525
101.004 18.4571 3.72714
95.6459 16.3086 3.02494
155.452 26.9101 5.84802
92.056 15.5174 2.28185
49.1426 11.147 2.44319
59.6217 10.3175 1.75996
41.8722 6.72683 1.77115
121.502 20.8089 3.43191
35.1228 7.05694 1.44788
62.1397 13.2245 2.92996
79.0517 15.3656 3.05295
80.0732 14.3437 2.33811
37.147 8.67221 2.52094
88.0301 17.7467 4.02691
87.5103 16.7788 3.30451
76.4203 14.6956 2.98233
40.536 7.43438 1.72871
53.3449 9.49571 2.09389
57.7114 12.7939 2.70043
47.0573 12.4035 3.0265
96.8094 21.8232 3.9796
65.5941 14.8509 4.02423
133.596 33.4541 8.52035
112.801 23.9002 5.49424
125.237 26.8523 6.53929
97.8569 24.2475 6.45131
56.2835 14.753 3.31903
113.213 24.8189 6.37443
53.729 9.63208 1.7873
111.128 26.7688 6.51978
26.0378 9.06387 2.38591
69.2718 16.9602 3.8808
50.3475 13.2657 4.45438
45.4178 9.56891 2.37644
53.6444 13.5046 3.42421
118.091 24.9092 5.19687
46.1867 13.3618 2.79125
58.8058 17.8466 4.90625
62.1547 14.153 3.53369
50.3425 12.3535 3.22365
85.9198 20.5972 5.44097
50.3013 13.5816 4.1229
52.8147 14.4689 3.54995
69.6486 19.8621 5.33751
86.6594 26.4776 6.90374
89.3058 23.3711 5.62169
103.156 23.9755 5.46417
23.1583 9.39054 3.43662
39.0444 7.86261 2.20009
60.6551 16.4276 3.90054
23.6177 9.19741 2.8164
49.973 15.578 4.95237
53.1286 18.355 6.60762
121.743 29.1611 7.67624
50.292 13.7349 4.1068
57.0207 13.6595 4.25633
144.474 38.9104 10.7344
39.4655 11.9811 4.0992
55.0993 16.438 4.28529
64.0162 17.5469 5.07048
38.8191 10.7868 3.23754
52.8787 14.8013 5.16062
35.8868 11.7855 4.60124
84.8749 20.381 6.2603
75.6848 22.2882 5.25219
40.4446 10.8738 3.21762
121.652 42.7558 15.3937
59.9105 17.9079 6.73235
72.0827 24.6695 7.30614
31.1734 13.4892 5.13114
43.5444 13.1748 4.85789
87.3474 28.2098 9.10403
58.7778 21.2324 7.18283
64.9406 23.1724 7.93422
47.6354 12.1886 3.54422
45.6602 15.8001 4.64425
39.8887 12.6939 3.93918
50.6832 18.5019 7.1116
65.2276 19.9027 5.93624
34.9478 14.8237 6.24117
93.7726 30.0512 11.177
82.9096 32.1066 11.0905
48.4659 15.057 4.46508
83.3615 33.9403 13.0633
87.3884 31.151 10.0702
41.2441 15.4507 6.22152
51.5534 16.3174 5.58136
46.0431 18.4368 8.86262
93.2089 35.5454 13.2547
71.1912 24.1621 9.48303
69.6115 25.6689 7.57418
44.6331 16.0611 5.3393
69.5748 29.704 13.4327
39.845 16.9814 7.47633
78.3805 30.8648 12.355
107.046 37.5359 14.3797
51.5587 18.2988 7.04614
127.665 56.2655 22.2013
29.6301 12.2084 5.14016
52.103 21.1129 8.90399
11.4108 5.2693 2.04217
55.6043 21.653 7.65566
22.2207 10.3897 4.34668
42.3483 21.6325 10.0065
63.6521 25.1044 9.91411
55.0121 18.7862 6.91243
32.3886 17.5339 8.0615
66.0081 25.6901 9.17073
54.9503 24.3384 10.3242
23.3588 8.90077 4.23678
18.0026 9.03676 6.15003
53.8169 23.3355 8.92198
27.4782 9.91401 3.56829
40.3693 20.1428 9.84232
31.724 15.6235 6.38276
32.9578 12.4791 5.67891
50.9328 25.9574 12.8883
29.8858 11.4091 4.59774
60.4597 30.691 13.928
62.5371 31.425 16.1417
71.0352 35.3038 15.8598
70.2841 30.1461 14.574
34.9511 12.8895 6.73217
67.8866 26.7853 11.4743
43.063 19.7307 12.5504
51.0396 21.6672 9.74773
88.8043 39.1103 16.9177
21.3528 8.49918 3.76247
36.9478 19.8804 9.95808
58.2211 30.7458 15.7151
41.8269 15.9921 6.0826
44.3094 28.2021 14.2035
59.42 26.7029 11.4177
66.8916 37.6486 18.1647
36.9783 22.3909 14.2455
34.7066 13.2422 6.16856
61.381 23.9925 10.946
68.3125 39.7693 22.1595
69.2673 40.0995 19.1422
59.1505 34.5082 16.7768
22.6208 13.5277 8.6198
30.5639 14.8555 8.0426
48.588 25.9663 14.1528
56.1261 21.7954 10.6754
48.1015 24.1332 11.8027
22.4551 9.35399 4.99841
38.4681 20.9543 11.962
57.6559 26.6745 13.0622
37.3697 19.9513 11.6304
36.8174 21.2077 12.0119
62.5371 36.6711 20.4358
44.1756 19.8495 8.32152
26.1117 18.3428 11.6278
43.749 22.468 11.2724
25.0326 16.4106 9.51922
25.2144 16.8295 11.7303
50.7068 31.0288 17.7102
47.92 24.6952 12.8897
35.6607 21.3661 12.4674
58.5991 37.621 24.0344
66.41 38.451 20.1825
43.8921 30.1944 22.3214
62.8677 29.1331 16.7934
31.1805 13.2987 7.3536
24.6537 11.1854 5.3686
47.5012 30.687 18.9895
20.8897 11.2102 6.79054
17.4944 9.29723 5.83465
31.9153 22.7215 16.5844
31.7782 17.5913 11.3386
47.3596 18.2511 7.58308
32.7675 18.4138 10.973
42.0001 19.8841 10.1065
58.4798 35.5008 22.3962
54.2426 34.9971 21.1549
33.8836 23.628 17.0962
46.8818 28.6783 15.9996
54.2546 34.4741 21.3072
13.1074 7.11044 4.94401
19.085 11.5591 6.84894
42.4615 26.9785 16.4043
19.6973 11.5805 8.5513
60.6421 40.0655 24.39
19.6927 13.3484 9.92996
42.9681 25.8508 17.0792
13.4727 6.67955 4.95939
77.1767 56.3886 38.1064
30.5347 16.2597 9.60061
27.7138 19.1567 12.5638
24.9237 15.0662 9.96785
26.4256 17.1255 11.669
33.8094 16.6347 8.79204
23.2931 16.5422 9.10622
16.6776 13.8082 12.4764
50.3564 38.4688 28.2809
29.2555 14.1762 9.22963
32.1112 21.776 16.1635
40.3252 22.1274 14.1789
36.0838 23.9566 13.6479
25.7883 19.457 14.6257
9.82025 7.97956 5.0639
6.50859 8.88721 8.23836
23.7853 15.4397 12.4389
33.0077 23.0873 15.5237
13.8262 12.5194 8.79018
7.39676 7.07911 7.34434
55.0397 34.5858 20.6375
35.9055 35.6266 32.6746
36.4078 16.3075 7.7023
28.3094 21.5287 15.9843
21.2079 14.0865 10.1945
43.9142 29.3719 21.918
24.6343 17.6338 13.2127
29.4226 23.5441 18.3021
60.4802 39.0222 22.8296
16.6364 17.3188 16.8398
36.1068 24.0496 16.7847
18.7285 12.6438 9.03965
12.5379 9.76712 9.09777
24.2036 19.6965 16.1982
23.7159 14.4723 9.60298
13.4677 9.30464 7.90424
20.7388 18.5146 16.4199
40.5774 29.3906 20.7993
26.389 23.2239 22.0534
23.4258 15.401 10.4488
17.9779 11.7831 9.0566
45.696 34.0973 25.2704
13.5479 11.0972 7.55735
17.8027 16.5065 13.3875
10.5361 8.79042 10.5472
30.9144 22.8102 18.6305
25.8682 22.3417 18.0376
10.919 10.2402 14.5546
30.0213 20.1226 14.7644
35.754 23.1091 14.6392
14.8413 15.3645 12.2838
33.2195 30.3259 22.8177
13.3038 9.23769 6.99938
34.103 27.4143 22.2305
9.7659 13.8745 15.659
26.6798 19.3097 15.4896
14.9851 11.6901 10.7435
39.825 37.8503 31.9987
13.8597 8.16548 6.29485
11.6933 11.6551 11.7429
31.4333 29.6297 26.2985
31.2584 26.8824 27.1386
36.7536 24.3197 14.1964
35.5682 32.7369 28.4392
13.5069 12.8587 14.2693
16.3101 14.7766 16.7391
25.5853 19.1673 14.0505
23.483 22.8602 18.6394
16.808 18.2613 20.9137
15.955 14.6159 13.9816
12.6204 9.03611 11.4431
35.8735 28.4192 21.0924
34.2274 27.2844 22.5834
17.0276 15.3961 13.2994
18.944 19.0305 21.2278
24.6299 27.0304 27.62
60.7581 55.1574 46.2605
21.5248 19.7866 21.6266
31.5929 24.9158 20.3662
25.0437 30.1807 32.7619
18.1182 11.966 10.3528
22.2587 20.6704 22.0364
26.5017 21.4516 17.0907
15.6489 14.4103 13.1496
29.3485 32.7655 30.6864
16.9356 15.3801 16.2725
11.1609 9.85789 13.4477
27.5065 21.3131 13.5373
14.4795 12.5475 8.13662
14.9177 20.4528 21.9801
30.098 28.6436 25.8734
5.1964 7.29973 10.9069
10.9705 12.9684 15.8097
24.3884 20.5969 15.9464
13.1814 12.8819 12.668
15.3768 14.1899 12.2747
25.127 31.4529 32.4286
19.1863 23.2432 30.4669
19.486 16.3753 17.7571
30.7403 23.7584 18.666
22.0457 21.3241 23.2785
23.2271 22.4848 24.4698
21.1381 13.2437 9.62546
19.5684 21.5249 22.1629
33.8091 26.9616 23.2946
14.7702 15.1646 16.4734
17.8995 19.566 19.724
11.4948 12.6893 14.8331
18.8933 21.0425 21.9155
9.46195 11.7067 17.4951
29.1588 27.0204 25.0247
22.2154 29.8039 36.0704
39.5141 35.4384 32.087
35.9569 38.9203 40.248
31.4013 24.8615 21.6333
16.3299 19.3397 22.8073
16.7689 19.2685 20.2215
9.81633 13.7802 18.2009
12.1749 9.40945 10.392
16.1019 19.4947 24.9083
28.1838 33.9443 38.4616
34.671 34.0702 32.2677
14.241 13.1882 13.9847
16.1227 12.1548 11.3426
19.0088 17.6613 17.3295
11.5272 16.0312 19.0873
12.0812 11.3485 15.335
17.8684 15.2837 16.374
20.6686 21.2216 23.7083
36.8189 37.5214 33.6314
5.72094 4.61491 7.93757
24.8909 24.5844 27.9962
37.4371 37.6017 33.6728
16.2214 29.5606 39.7141
14.9978 24.8068 44.75
33.4514 30.3472 30.6349
25.1905 24.2361 23.8153
10.4964 12.19 14.2458
15.7631 18.0525 19.5351
12.1807 15.2917 24.8428
36.8265 37.2158 37.2585
27.7787 28.9623 28.235
9.85826 15.2702 23.404
21.6516 20.155 23.0879
16.2027 15.2372 15.9118
37.3547 46.4208 62.2986
35.5475 38.7522 42.8705
27.1641 26.2837 27.7168
10.7399 11.9011 22.0324
27.9838 29.5821 26.7369
15.0569 24.9317 32.3723
19.0598 16.7288 16.1642
9.3106 9.3249 9.40665
13.6386 19.867 26.0648
19.5556 25.7698 32.2803
7.89857 12.3399 17.3827
16.795 26.5728 38.5853
22.7774 22.3062 21.5496
24.6066 35.2268 44.354
15.231 18.5809 22.0182
12.5677 20.6413 25.4015
33.0385 48.712 62.6069
17.1037 19.0077 28.173
24.0731 23.6925 29.3518
16.1045 22.945 34.2307
24.6305 22.8567 21.8697
13.3859 15.6666 17.2642
12.0971 15.2992 21.7953
5.16673 10.8146 22.5354
16.6341 22.0371 35.4857
18.2862 23.9706 28.3718
10.7002 13.9173 22.4601
21.1517 18.4444 19.1531
8.56581 17.2879 32.7617
16.3171 14.0944 17.0784
21.9573 22.8192 23.0307
13.9814 18.6138 19.2526
10.155 12.603 15.6925
13.6662 15.4535 17.4454
9.72886 13.2182 18.0052
9.22716 14.0242 22.2745
19.171 27.4914 31.1338
20.7509 30.7807 39.1012
3.14418 7.30359 21.6879
27.1867 33.8146 43.3142
15.9516 13.4576 11.5189
12.864 18.0271 21.1267
10.8979 27.0585 40.5276
18.3658 16.2934 18.6548
14.1604 21.454 28.0424
10.8212 18.8061 29.5483
17.8721 23.3535 35.1952
9.04304 7.04885 12.1172
16.8672 20.6015 25.3988
10.9094 12.3688 14.4982
6.40412 7.35694 8.00531
10.7908 16.9218 24.0696
11.053 15.4952 22.2639
16.4855 38.4128 71.098
33.1699 32.0055 35.984
16.4816 20.0064 22.2222
10.535 12.583 14.3166
11.2411 20.5728 35.1765
13.5077 17.0265 20.9607
18.5628 27.8407 43.8767
16.9966 21.1657 30.491
20.7594 26.8525 34.1767
9.37021 13.4669 15.361
10.9987 20.3921 31.4353
7.56697 10.3132 18.2568
14.0412 22.9964 34.3434
17.351 18.6928 22.6843
12.9823 23.2249 45.5624
20.278 24.4491 27.2287
11.8044 20.919 40.3117
25.183 27.972 33.9826
6.68224 10.7583 18.7159
7.75821 11.5921 23.668
9.88081 13.8177 18.2091
17.1719 25.1524 38.9675
18.1913 22.3657 29.4366
10.699 11.6293 12.4823
4.73693 9.37845 19.4078
16.6784 21.4827 29.7049
12.1371 17.6821 29.5388
19.4193 28.9717 32.5344
8.66045 12.9819 23.6909
6.81231 11.9452 20.3112
9.86727 13.7929 19.7918
10.0126 13.9298 23.5156
14.6841 18.18 18.0144
5.07523 13.9786 29.463
14.846 30.0099 51.3215
10.589 14.5052 24.5441
22.7241 37.0022 59.0817
17.9803 17.7309 18.9425
11.1924 18.8241 29.3164
10.3585 17.77 31.2189
5.56163 3.19406 9.90456
20.7701 34.8941 43.7444
7.79426 11.7689 17.9319
10.1815 20.8727 39.0282
13.3932 13.6885 21.0791
14.8899 29.552 48.509
20.6796 33.4671 60.9609
13.7032 21.542 35.3394
12.0151 14.3803 26.7842
18.9533 30.1858 50.8102
19.5205 22.2392 28.9344
16.23 21.505 26.1298
4.65895 7.21391 12.7177
17.3948 28.1695 33.1468
6.83116 15.1471 26.7158
9.21248 19.466 33.5763
10.8576 16.1898 25.1039
4.43327 8.42183 24.4648
13.383 15.5713 17.0784
13.0438 28.9523 55.033
9.28857 10.078 22.667
12.9132 18.0391 25.3639
13.0138 18.205 18.4643
12.6027 27.4558 52.4713
7.89706 12.0815 27.8664
19.0425 26.8143 42.7817
8.73526 11.1274 12.1386
9.52838 22.7565 43.071
15.9038 24.5122 36.1935
10.4593 15.1447 25.524
13.2235 21.7509 35.4158
13.6468 26.0715 52.2143
13.7934 15.2019 24.7462
15.6353 28.8384 44.0526
7.22681 10.6643 26.5389
10.4348 13.063 15.7264
2.71299 8.60062 21.2566
12.306 18.2793 28.9665
10.4577 20.4717 36.5679
10.9626 19.3317 41.2903
15.1261 17.6311 24.7292
8.08008 18.1549 37.0833
16.4603 21.3529 27.8721
11.1422 27.4833 50.3014
4.54722 12.4845 34.1148
6.87838 9.58326 23.144
9.30994 13.9203 17.9322
3.99651 16.9207 41.0302
13.7475 15.3882 20.6627
6.97332 12.9761 25.0174
13.9163 22.5983 37.4082
6.88852 9.13227 14.3318
9.49756 21.9507 43.3872
9.0915 10.1694 19.8252
11.1691 18.2766 32.3053
6.9935 14.3935 40.7129
16.9752 23.0854 32.7446
15.2461 23.9308 38.9285
15.5665 35.2061 70.8006
18.5765 28.4302 44.7618
12.8813 26.2754 47.3167
9.66265 11.0659 21.4912
9.78628 17.2288 24.281
8.84079 25.6623 57.8416
9.58924 12.1565 23.5265
7.9806 7.83 12.2377
13.2354 29.1202 50.7376
8.11821 13.1459 31.1784
12.1139 16.5889 31.8026
14.3909 20.652 28.0285
8.72 21.075 50.2404
20.4504 28.921 43.0906
6.43857 9.40858 24.202
14.0688 21.3812 27.3748
7.12208 18.7038 41.3894
10.6054 21.7551 40.4907
8.87285 20.1222 34.9311
7.02377 14.6161 37.8632
8.2258 15.5419 38.7303
13.5138 25.4117 52.8151
19.5697 28.3716 37.195
11.2259 22.167 35.9415
9.27954 24.8886 63.6361
18.2896 29.1378 55.6931
13.5017 18.0274 33.0743
9.76899 12.1573 12.4756
5.13873 16.1853 42.4343
15.3066 19.646 25.3119
10.4119 30.3223 52.3342
5.69882 6.56386 14.4329
5.58346 17.1757 40.3649
5.69851 9.87429 40.9696
21.7697 33.7325 50.0596
7.69682 10.408 14.7118
7.87186 19.1239 30.6923
4.5789 8.38206 20.9088
7.22175 13.3372 36.9153
15.5731 25.8299 41.1111
7.60701 16.7657 26.0689
7.61019 16.5579 38.8185
8.40571 18.6576 40.6831
9.40222 17.3769 31.7392
7.63378 18.7468 47.1324
13.5942 21.0079 30.812
7.12558 16.2091 28.6643
6.99528 17.6772 41.3469
12.9561 23.6971 34.5528
5.68102 14.7951 31.78
3.55935 7.49288 25.1497
9.37322 17.5904 36.6871
10.8167 27.682 50.6179
4.64672 12.4974 35.1819
8.00764 19.1875 63.4215
24.8005 42.9946 68.6082
6.16984 8.54886 23.3069
5.40719 7.10412 19.5924
10.0737 15.6101 27.8912
10.8296 22.8559 40.9091
10.6871 28.6549 69.6842
11.922 14.3427 17.9027
3.9945 12.3038 35.4594
8.3669 13.2559 27.5538
6.2883 10.4746 26.9737
6.61537 7.63603 12.977
8.85448 23.2128 44.8065
10.7419 18.3253 39.422
10.5078 20.2907 40.608
9.85374 17.8594 32.8687
7.24846 15.0945 32.4126
9.99354 24.3024 53.6411
8.79396 15.0697 35.3676
10.5919 18.3336 30.9501
6.02344 14.5507 32.568
6.48025 12.914 21.7686
8.70101 19.6299 31.005
6.99376 21.2945 48.9949
7.20063 20.1298 61.3511
9.56829 14.3015 31.8564
10.4142 27.7409 55.3065
9.06018 11.2118 19.4026
8.55616 21.9467 45.2502
10.1542 24.4588 58.7028
7.23336 14.6254 39.798
10.6592 20.4791 33.3097
5.84758 16.5814 44.0392
7.79536 15.1236 24.6698
5.89639 20.075 54.2339
8.15301 13.0758 20.0349
3.8037 9.60859 28.2351
6.5647 9.28802 11.6763
4.81884 15.3334 32.0388
2.78706 8.78953 23.1548
4.31391 11.5953 39.6022
9.86531 15.5505 25.4137
8.14116 26.0643 48.3706
4.8751 13.4103 40.8239
7.40936 9.34879 20.3529
8.96164 20.6295 32.8654
3.62118 12.5827 37.8139
4.62119 10.3678 41.5523
10.1359 11.8426 26.5941
9.29333 21.2169 38.4758
7.82144 15.4287 34.7802
8.71333 21.5068 56.9461
11.837 20.4303 37.5731
5.97144 10.8229 21.6264
3.93193 8.21356 19.1371
4.98829 16.528 42.6683
8.08273 14.2505 35.7305
5.73424 6.40842 15.6476
5.94272 11.8739 23.4319
5.5062 16.9697 37.7155
4.3309 5.14017 15.5025
6.91666 17.9854 49.8187
11.6967 23.4155 32.1473
4.26432 18.2095 63.3263
12.9533 22.833 47.0148
4.02059 2.72482 10.4042
9.00565 30.3776 63.4029
7.43807 14.4416 29.2466
4.7416 10.5841 27.3444
5.05085 12.4832 23.2139
4.03491 13.1681 38.1814
5.31403 12.1345 35.9402
8.66233 16.7857 47.597
12.8997 27.2302 63.0591
11.6647 21.4861 34.1828
5.43714 20.007 53.5765
8.79701 23.9688 58.9569
8.60067 16.9898 48.5979
8.22667 15.9953 33.0837
5.60536 18.0078 52.0792
10.2205 18.6189 31.979
6.21564 19.8517 51.2379
7.95042 16.5123 29.6449
4.86602 11.3018 28.2434
2.52109 6.6065 22.572
6.06227 14.3767 21.4348
3.70598 12.2877 30.0749
4.50346 15.0182 48.3377
7.27159 7.19915 8.85198
7.20297 24.846 61.9509
5.84586 14.4886 32.7148
4.49316 9.7251 34.3508
7.08828 14.0862 35.4236
8.68772 26.5601 62.4661
6.31108 10.1057 25.6063
10.0101 31.6523 77.1818
7.39914 9.97587 44.2099
8.22162 12.4583 36.4014
10.2795 17.5005 21.4221
4.79384 14.5704 38.7176
6.20862 14.0718 28.9493
4.69252 10.4887 17.2901
2.60579 8.15051 24.323
4.4058 11.8457 32.9564
5.24381 13.8704 26.0356
1.83583 5.93214 19.1382
3.14623 11.5411 42.1588
6.49596 13.2805 27.3324
2.93702 6.21677 16.9917
4.52052 14.3474 30.3479
3.7703 7.34335 15.5829
5.68478 21.6529 60.235
8.56811 17.3289 48.7227
9.30352 24.4905 49.1313
5.30497 11.7501 23.71
4.83784 16.0664 47.9491
4.95678 8.75494 15.025
2.62906 7.77008 29.3631
6.56705 14.6821 35.0066
4.05422 8.09241 21.5873
7.44474 16.0819 27.0308
4.03457 22.2574 75.8181
8.31174 8.64368 20.0696
5.25177 6.2114 13.9896
5.47661 19.6122 53.4364
5.09764 4.30183 16.1843
4.70899 12.8657 38.629
7.36732 15.6188 26.1199
3.46898 8.84371 27.4368
7.17181 21.2897 51.1335
4.32702 10.4439 37.655
8.5077 18.0387 35.4376
5.61988 14.3659 36.8979
3.19618 7.11391 24.1996
3.97176 10.8294 35.3942
4.40623 8.60933 12.2372
2.8053 7.50934 25.1492
6.61303 23.895 55.6752
4.67248 9.40651 27.2774
3.71958 8.1903 43.3064
9.29129 16.57 25.1541
6.13051 22.4127 73.9199
7.8507 16.1863 20.7171
2.5222 6.51538 27.9029
4.74011 10.4529 15.8132
2.89612 13.7443 46.6395
6.68971 13.4251 35.3488
8.10967 19.2444 41.7933
9.70289 25.0978 60.6822
4.09388 4.17525 9.68324
3.82597 15.338 48.2268
3.34996 6.18893 15.6354
2.05089 12.2867 57.2549
9.04834 18.6077 57.1316
7.85283 16.4296 29.6933
4.11987 9.30827 27.237
5.88136 10.101 39.5636
10.0582 20.5336 23.7565
3.69352 14.2876 35.6243
3.39911 9.0046 40.8562
5.96126 11.7677 25.2385
4.15419 15.8751 38.9979
2.52799 6.09817 40.1498
8.20085 9.92085 12.5857
3.51588 12.648 36.3932
3.75413 8.63945 17.5136
3.13343 8.46099 29.2337
3.67209 18.5446 57.9607
4.88855 5.36373 19.429
6.03028 16.8057 46.5334
4.57012 5.28128 6.70418
2.39203 8.93121 22.5156
4.72709 17.3517 40.617
3.05237 9.36474 20.1192
2.11416 8.7986 36.5546
4.17565 6.59746 41.7333
9.20325 21.0695 41.2294
4.84205 10.6035 18.2147
1.83366 8.38663 37.5929
4.66462 10.9294 41.7987
5.9324 9.14958 9.10764
2.82829 7.9867 15.1633
2.41315 9.20025 25.5281
3.09458 9.3234 24.9519
4.01894 13.7281 36.8628
2.99448 5.51786 9.53008
4.28054 21.5844 72.7285
4.07733 5.67418 34.5815
5.60117 10.643 33.4134
5.59284 11.0122 19.3999
3.71675 12.4282 37.5673
3.83099 7.22121 25.1511
4.39371 7.25579 11.373
2.84872 13.282 31.9627
3.24423 10.7483 30.0282
4.44694 12.5468 28.2162
3.96057 17.9565 72.7766
7.20167 17.7925 33.9859
4.22511 17.2718 69.719
8.74338 16.1083 45.6422
5.95806 13.7972 31.5144
4.0746 9.11704 25.6426
5.13631 11.609 26.6037
2.05178 5.71687 23.487
5.33977 15.4205 36.274
2.93322 10.4661 42.767
6.88381 11.5463 24.6439
5.11535 12.6785 24.4125
1.82246 6.52294 17.1864
2.22957 12.0431 44.841
3.2817 10.3772 52.0796
7.55161 17.5893 48.7451
4.43878 7.88099 33.1594
5.02734 8.92714 22.1334
5.32042 18.1694 31.0427
3.0477 13.3801 37.9836
3.41705 6.62693 27.8322
4.6877 11.6164 42.6858
4.4217 16.1553 49.7889
4.8883 10.0985 37.8053
3.98355 9.77701 19.1671
3.16211 9.42913 18.9029
2.55941 8.267 20.9365
1.06753 3.07965 6.02836
1.48023 8.91508 30.0267
3.17486 12.5238 39.364
4.08968 6.72519 18.1787
2.18102 4.95395 12.1607
1.83229 7.01842 24.3138
2.64751 8.15404 38.5998
4.56686 7.21415 23.1745
4.49427 9.54317 15.9073
1.04149 4.92728 17.7562
1.75728 10.0993 47.4259
6.63232 17.2346 37.04
2.62874 8.38976 31.5147
3.23547 7.63352 17.4346
2.59554 9.75288 53.3306
6.46065 14.4471 26.3532
4.45074 16.2033 54.3107
6.64863 18.4068 36.0163
4.23418 15.8178 52.6464
5.57457 13.0101 39.8699
3.17044 3.97984 18.9404
5.23116 18.4969 49.3195
3.74866 12.4808 38.4819
4.10495 10.2405 24.4477
1.48605 8.95298 26.2603
2.41304 9.16251 47.7673
5.741 14.7639 24.3543
2.20431 4.75227 12.3642
1.47741 6.04492 40.8259
5.83751 15.1626 50.9785
5.32475 18.3528 33.4681
1.22147 8.69296 46.4296
4.2962 14.9173 47.2618
5.98331 21.4365 56.4775
4.92565 8.83514 26.0802
2.09648 6.46169 18.5725
2.14414 12.5367 63.5952
7.39566 17.8497 35.5802
4.11964 11.3512 58.2991
6.35198 13.8669 33.037
3.46584 6.62131 18.289
1.87889 8.25075 29.3935
4.69307 12.6794 26.1717
4.07517 10.0691 42.4192
5.89616 17.5889 27.288
2.19077 12.5694 43.6308
3.81461 10.0862 49.4217
3.81334 7.9067 20.1846
1.68704 2.50563 5.80302
1.53179 8.79754 30.1513
1.66632 2.899 15.2605
1.95709 8.65629 39.2855
3.41543 8.37889 17.6573
1.81875 4.99931 18.9889
2.73481 11.0379 38.6044
4.30554 5.12332 17.7779
2.47218 13.7742 65.1537
6.04405 10.8551 29.3162
4.33937 12.8814 41.9252
4.37489 14.5923 42.869
4.85704 13.4925 36.1602
3.24285 7.7642 21.0754
2.52016 6.8792 38.7327
5.71042 17.0767 29.2059
1.53942 5.65994 22.8312
2.48121 10.0827 33.0129
3.17023 6.11059 14.9278
3.33955 8.33725 23.7808
3.51712 11.8267 33.3928
3.83527 15.5083 52.3083
4.81445 13.3082 36.4376
2.10436 2.66091 10.621
1.90236 12.5624 41.9297
2.31671 5.63753 21.3929
2.29166 10.0074 32.1811
2.56354 5.98456 16.22
2.51987 10.3385 37.0064
3.92658 7.36657 14.8158
0.87323 3.34445 15.2077
1.39978 8.14287 36.39
2.33971 4.89478 27.1086
4.21641 11.8527 27.8247
3.39689 15.902 44.4069
3.017 14.5018 36.089
3.12785 11.4122 46.7252
3.45211 10.8783 39.0705
3.03123 4.27751 12.2252
1.96561 11.9573 64.4611
6.23895 12.3359 35.9432
4.21138 14.6585 33.0975
2.96546 11.2793 42.9625
4.75845 16.2133 45.469
4.33267 15.2976 59.1699
4.49028 11.2241 31.9765
4.4016 12.1694 42.6484
4.10247 13.951 45.1652
3.69848 11.3724 29.2729
3.03076 11.29 74.0576
7.24538 19.4109 51.832
4.05644 8.49981 16.0849
2.14777 10.2761 68.8553
8.22785 22.8896 57.8527
4.97412 21.7338 59.946
3.92528 8.35228 30.8321
2.55199 5.97589 10.9831
2.52186 21.8909 65.7452
4.30653 8.18672 34.0151
3.89773 16.1084 66.3328
5.9869 22.2217 75.0742
5.62812 7.79073 19.3959
3.39466 13.7167 42.7994
3.69388 18.4888 62.5296
4.64494 10.1365 20.2103
2.14932 13.753 62.4756
5.28662 11.6017 19.9848
0.752541 2.13674 14.3942
2.22698 8.58249 33.9633
3.0265 6.61685 25.9484
2.80812 11.2936 44.7479
3.85989 10.0675 24.5573
2.78371 9.28817 24.4971
2.8611 6.94309 19.569
1.62082 7.82313 27.7731
2.52975 9.48401 41.7414
4.11382 5.41987 9.18739
1.95199 10.7064 53.9071
4.58718 11.7643 22.7735
1.63104 5.37593 18.5932
1.53724 9.07376 41.319
3.63773 13.4732 43.8799
3.20561 9.24666 29.0213
2.84339 8.37836 16.7942
1.26269 3.99889 24.6539
3.02841 10.7751 30.3142
1.90032 7.40816 29.9371
2.94395 6.82533 36.8972
3.01685 10.1276 24.8224
2.25465 5.07323 15.6006
2.12024 6.86933 35.1844
3.90325 11.3175 21.9194
2.66258 14.6316 53.128
2.90961 7.42762 21.8595
1.23311 5.96969 34.9199
3.17545 4.50561 10.8516
0.992539 5.64638 36.3825
4.30716 11.7443 16.2234
1.0198 7.25466 38.1884
4.53527 18.45 49.9183
3.44979 7.36643 17.8205
1.81671 11.1943 44.3192
4.57288 10.7747 38.4236
3.53147 10.8387 25.9199
1.25751 1.35144 7.04263
1.57551 5.64384 25.552
1.95803 4.90788 25.9873
2.91814 9.40558 46.2628
4.53284 12.0701 27.8086
2.19901 12.8027 36.5056
2.28823 7.20415 15.052
1.82364 10.4001 56.091
5.02782 10.2621 22.6717
1.65749 8.50178 45.8659
3.09327 8.38143 25.5897
1.5131 3.19932 25.0939
3.66012 20.9649 49.9757
2.43443 4.21104 33.1787
2.98983 9.42525 38.4753
2.76852 6.67651 25.0441
2.64885 8.38587 36.5601
4.23788 17.0102 35.0195
2.72694 6.16266 22.5761
2.98859 13.6581 41.3975
2.54479 5.56116 28.542
2.2794 6.60341 33.7473
2.81194 10.313 24.3862
1.55617 8.50692 26.8071
2.33445 11.4458 47.8636
4.4111 7.8708 39.0359
3.50126 12.369 25.5769
1.23779 2.27042 20.0629
1.87315 11.5181 44.2669
4.2737 19.7209 47.6718
2.40923 5.83854 15.7572
1.53993 10.221 49.6684
2.42805 5.5152 37.6116
3.74564 12.2238 41.0805
4.49549 9.20497 20.6166
1.87936 11.575 47.7712
3.05211 8.43818 36.1164
3.18542 12.4485 44.2893
3.34508 11.9446 34.475
2.39861 10.4909 28.8562
1.86014 3.68883 13.0992
1.20545 10.7618 36.0534
1.75481 3.80835 17.0447
1.71331 5.3977 23.1095
2.44921 13.5759 40.5004
3.06975 8.57091 41.2747
2.90774 9.28323 25.6293
1.64347 9.70848 80.011
6.54302 12.3988 15.5875
1.26491 7.44216 28.1231
1.94459 11.3731 34.4427
2.17346 5.73888 35.0477
4.31752 11.78 20.3672
1.44901 4.68688 7.67387
0.745859 9.40581 35.1805
2.56333 13.3149 75.1293
3.76032 6.36303 39.5509
4.78909 14.6565 29.3747
1.57187 8.42347 39.4141
3.78216 10.2476 18.8317
1.98287 13.0881 40.143
2.57733 3.87232 17.0186
1.40422 4.94404 28.6635
2.16415 10.7591 30.081
2.16601 5.8034 43.4863
3.76901 10.2058 32.3972
3.34578 15.3659 68.7152
5.30155 8.61781 19.3924
1.82365 6.66302 27.5164
1.95601 8.5249 34.3536
3.05153 9.70708 21.364
1.94009 8.93023 31.4742
2.11147 14.7551 48.7587
2.66274 9.52779 24.9811
1.8727 4.40924 34.8373
2.55431 5.98384 11.0276
0.700001 2.06153 13.4545
0.832201 6.48608 37.1513
3.03366 11.073 26.626
3.016 6.48001 25.4002
1.81139 14.6236 59.8061
4.26763 10.3096 31.915
2.22419 9.5871 28.6017
2.05734 4.18491 20.5011
2.02565 11.6201 26.8
1.6523 5.86162 26.9608
1.73494 4.96777 28.8096
2.17789 5.44327 19.55
1.96254 11.0711 46.4221
3.43427 8.73249 17.3102
0.980438 10.8604 40.3892
2.33204 6.92685 27.696
1.95719 7.19983 28.2884
2.97789 8.79985 33.4743
2.31288 11.2039 33.8284
1.97089 7.74371 43.1997
2.37216 5.53999 11.0951
0.921838 6.88254 22.6732
1.11993 4.47328 47.4767
5.11922 21.4616 62.4613
3.43956 9.48204 23.7025
1.53879 2.86779 18.0776
1.52734 3.32383 11.84
0.96417 5.53835 13.528
1.36817 5.10539 22.6452
1.53276 5.11662 22.8322
1.80682 2.33582 10.4446
1.82949 10.0984 34.1572
2.84872 9.06496 38.0776
3.34129 12.0393 29.0595
1.74782 10.6947 40.3875
2.16903 3.81839 14.5556
0.839303 5.10036 40.2227
3.0309 5.50589 13.5224
1.68301 3.23813 12.4374
0.935925 3.97043 11.7054
1.30536 8.36684 25.8592
1.50173 5.44505 23.9274
2.11073 6.97447 33.8937
2.57112 7.90748 34.0168
1.90458 8.13406 25.8615
1.79215 8.33533 41.1185
3.30316 8.8049 23.4985
1.29211 7.69744 17.8766
0.776557 2.94555 16.3792
1.5578 2.89712 17.893
1.79605 8.11565 18.9058
1.55579 11.3036 45.2421
3.91871 6.46454 29.7557
2.64275 8.99106 24.5028
1.37035 6.56748 51.2366
3.78689 11.8647 39.7361
3.00072 12.365 44.1559
2.94727 8.38626 22.4603
1.91394 6.86779 24.7001
1.87942 6.57803 31.3708
1.86574 9.73242 45.5166
3.36103 7.98641 18.6625
1.74802 8.73518 62.2046
5.30225 13.2403 27.3272
1.69234 4.23267 15.0385
1.24458 10.0344 55.1002
4.00799 13.5218 48.9482
3.37976 12.0551 30.7866
2.40828 9.66695 51.958
4.39466 19.8892 58.2925
2.70254 4.64758 20.5532
1.45917 5.56688 19.2654
1.5829 10.4676 51.5381
3.87623 9.97406 33.0707
1.97044 2.48329 11.5156
0.855515 4.20913 22.6032
2.10459 3.38498 25.8237
2.13149 7.23993 20.2011
1.09047 5.57246 29.777
2.73714 13.0829 48.4661
2.99007 8.43449 17.775
1.36947 5.26733 21.7504
1.29028 4.60403 24.1375
2.13611 5.70551 11.1903
1.14326 5.78495 16.6985
0.964923 2.14223 38.5301
4.22428 13.278 36.5253
2.24119 7.29741 22.8968
1.59626 7.50145 32.9662
2.59274 4.45295 17.7722
2.18845 9.97478 32.9765
1.52279 2.83772 15.063
1.49244 5.18932 37.3889
2.80214 9.8153 23.3054
1.70714 6.16475 35.1232
2.49941 6.31396 24.4115
1.64995 8.42489 20.4423
1.47327 3.17547 19.8471
2.0848 8.33134 36.1528
2.444 9.88742 67.2518
5.40181 19.0299 23.0171
0.864886 6.47211 29.1984
2.28582 14.0292 72.4089
5.56298 11.3779 22.26
1.4224 7.15361 40.7063
2.48768 7.44895 30.8004
2.88023 8.7621 18.9403
1.07331 4.2705 25.9052
1.43593 11.0659 21.3912
1.2304 8.37098 60.0617
4.91718 12.4094 41.7244
3.02195 7.6268 6.24368
0.540686 5.65112 41.2421
2.36279 9.99957 29.9965
2.26627 12.6836 50.369
3.95398 10.6061 30.0331
1.82982 5.01095 27.9349
2.21563 8.77174 21.9741
1.51278 8.20674 43.8692
2.80055 7.57057 32.2677
2.31629 8.4045 34.6976
2.10282 9.50069 22.8738
1.53646 3.02027 36.3783
2.61948 7.53541 42.0388
2.991 12.9083 48.3851
2.74184 10.524 40.8241
3.24711 10.5649 11.4213
0.757463 8.46607 36.5538
2.53318 13.2476 45.2162
2.0193 8.69744 42.4043
2.60824 7.78012 53.7665
3.39442 9.85699 38.3119
2.7033 9.95004 17.8228
1.44139 9.07769 45.3149
2.88581 6.0732 37.1718
2.36063 12.9122 38.1845
2.15337 5.74842 12.8941
1.22091 6.75177 28.1727
1.9798 6.49444 34.217
1.97079 7.05379 25.7635
2.42721 13.9839 47.3352
3.71968 13.5488 33.8481
2.33224 4.18202 35.9645
2.60591 7.20905 34.4833
2.36193 12.9244 40.5533
2.83689 6.81591 18.5619
1.44122 5.17866 34.6341
2.36357 7.66471 26.0603
1.94441 6.81936 50.6804
3.29487 11.4187 52.3911
4.17705 10.7171 21.5755
1.41451 7.44828 37.8746
3.01737 4.15822 27.1439
2.17264 12.9231 38.915
3.11853 6.99395 28.6211
2.05417 7.13033 18.6957
1.55881 8.97611 48.7076
3.03085 8.59416 31.5414
2.1929 12.3674 27.6556
2.12243 10.0405 46.6222
3.42088 4.50075 14.9232
1.08619 9.46359 41.2643
3.61354 6.76926 28.6121
1.60253 8.07992 18.6137
1.76104 5.77045 29.561
1.68983 5.87652 23.432
1.51044 5.79988 23.4334
1.97707 10.5737 36.6054
2.32029 8.01263 33.3776
2.50536 6.80272 23.4873
1.7257 4.9136 31.832
2.55305 9.35419 45.9405
3.04154 5.60129 22.43
1.5405 13.2535 51.1012
4.05685 9.46148 35.6027
2.11425 5.33268 25.7661
1.60206 8.5647 26.7333
1.84787 4.90734 18.8609
1.99697 4.85811 13.9542
0.61161 3.04297 11.5783
0.781949 6.82571 37.0581
2.2145 7.40983 29.1723
2.14402 5.42125 17.762
1.58377 3.48879 20.5817
1.37595 11.077 43.0943
2.53936 9.50161 36.7435
2.03794 4.26835 33.8407
2.29116 11.5074 29.538
1.92075 6.55179 39.8982
3.02842 12.9903 36.666
2.85302 4.71793 13.3773
1.01746 5.66714 15.3184
1.0145 7.08319 37.7629
2.84154 11.8836 43.6482
2.73769 7.62879 28.1221
2.16778 10.9627 45.1546
2.66696 17.6663 60.2051
4.21689 9.37387 35.8556
2.2439 9.75262 24.1586
1.64947 6.57366 45.8873
2.15457 6.41509 38.7051
2.63544 3.10986 12.7732
0.667986 5.47904 23.486
1.19496 12.9868 57.0234
3.82228 9.76682 17.1095
1.53494 6.40325 18.898
1.57779 6.33519 21.6742
2.02018 10.3988 40.8378
3.75955 8.04071 20.9926
1.46899 10.7887 64.8301
4.71899 13.1601 23.8702
0.975994 5.9691 30.7882
2.16472 7.52544 47.5051
3.23858 11.4825 28.8587
1.506 5.36475 32.3777
2.04086 9.82589 39.5262
2.21657 4.0975 27.9197
1.87213 6.12935 37.2285
2.91607 12.2771 31.9387
2.04021 9.62382 46.0242
2.86729 3.62699 19.5777
1.70202 9.24942 8.94139
0.888548 9.4576 70.8559
4.94765 15.614 28.9547
2.32677 2.94639 18.5506
1.13917 6.32509 36.94
2.36923 10.1022 39.0402
2.7526 6.08831 26.0603
1.9846 7.53113 23.3785
1.34871 6.01701 22.2143
1.65006 7.51359 35.0081
2.13101 8.8687 20.1813
2.11091 9.98348 51.2087
2.97763 10.6033 36.3748
2.93948 8.84421 50.8065
3.9852 9.94431 31.7122
1.75759 5.95599 22.839
2.29817 12.7844 29.466
1.78807 6.93787 54.6181
3.47369 8.29506 36.4347
2.48804 14.0186 33.1432
2.4453 5.01792 14.638
1.20769 8.0944 36.1464
2.05487 11.0058 46.0172
3.41214 9.02232 28.0768
1.94499 5.0161 40.7194
2.41655 10.8059 30.4813
1.19945 11.9882 63.4644
5.30629 13.3939 58.6748
3.2601 9.89417 44.746
2.38901 12.3637 39.356
3.33127 9.35941 17.8321
1.39375 5.21403 27.4775
1.54002 8.76311 47.7095
3.9902 9.02396 23.7352
1.41759 0 0