# pn-170911/RbIIA-30-RbII-1280-1959.psd
# Power spectrum* (dif=0,1,2) (really just |FT|^2)
# NOTE: only the first half! (symmetric)
# weeks: 1280-1959
# 180 clock-days, 36 excluded
# PSD: 1441
23762 0.267447 0.0190716
660869 6.29488 0.0345481
4.35854e+06 106.911 0.0361249
365858 11.05 0.0346142
279435 18.6568 0.0392939
119544 9.65903 0.0366187
98082.9 9.8611 0.0386194
70200.8 11.0931 0.0370079
54175.3 9.88926 0.0446195
42281.6 11.3565 0.0469634
41804.7 10.3222 0.0474559
26678.5 11.6768 0.0427155
24877.3 9.30479 0.0467888
18196.4 9.88456 0.0482352
19160.5 9.67646 0.0541414
17022 12.7471 0.0489861
15121 9.71936 0.0543324
10733.6 10.2449 0.0535382
12901.5 9.50371 0.0596122
9399.54 10.2935 0.0572238
10121.3 8.87695 0.0608509
8159.61 11.6523 0.0668346
9240.19 9.45926 0.0695653
5400.18 9.24178 0.0613463
7191.6 9.4607 0.0643533
4468.44 9.23082 0.0615072
6585.31 10.3379 0.0853442
4124.51 8.63573 0.0619923
5608.93 11.3821 0.0802498
4368.98 10.568 0.0813376
3910.53 8.97594 0.0848353
3470.97 9.56221 0.0829835
4031.31 10.5228 0.0834327
2923.66 9.55628 0.0842601
3075.16 10.5049 0.0971454
2508.82 9.20976 0.0889209
2476.55 9.88921 0.104856
2276.61 11.2409 0.107744
2288.4 10.7654 0.108863
1980.19 10.648 0.129929
1591.45 8.39574 0.117268
1907.79 11.1995 0.111612
1702.87 9.84327 0.113517
1775.59 9.87136 0.149766
1475.23 9.40966 0.134201
1500.58 9.64318 0.129529
1500.37 9.99749 0.123606
1490.98 10.621 0.159347
1575.19 10.8916 0.161138
1321.72 9.97012 0.155446
1314.09 8.54367 0.14003
1318.14 9.51432 0.151765
1298.04 9.95689 0.170776
1209.4 9.49487 0.175436
1448.7 11.2209 0.184652
1030.55 9.14208 0.163793
1208.07 9.86738 0.193658
1054.13 9.46382 0.20595
1213.36 10.2964 0.197181
1069.76 10.635 0.23189
1149.98 9.99241 0.210882
943.859 9.75691 0.21299
1083.97 8.30234 0.202982
838.932 9.26871 0.233461
1015.27 10.4217 0.265645
884.909 10.8649 0.269436
1123.08 11.7473 0.358644
904.775 11.9034 0.318455
883.09 9.53921 0.284696
757.968 11.3632 0.302185
889.929 10.704 0.330555
672.369 10.0415 0.321314
687.427 10.0178 0.3209
595.516 9.21586 0.302789
650.019 10.2828 0.313061
579.07 9.81756 0.332663
605.847 9.58238 0.286435
630.995 10.9644 0.40055
555.018 10.5185 0.367061
594.01 11.2908 0.42788
519.516 9.03793 0.36859
476.871 9.37595 0.331405
469.097 9.96204 0.42709
465.867 9.27628 0.414437
479.725 11.1894 0.427483
478.013 9.93062 0.359999
412.294 9.65715 0.382142
379.167 10.1468 0.459971
403.382 9.65825 0.406624
382.981 9.71327 0.429128
399.757 9.63616 0.430967
332.004 8.72405 0.422657
465.742 11.5478 0.510931
369.36 8.92984 0.393424
421.541 8.93986 0.436356
377.686 9.81296 0.511406
364.063 9.76014 0.475514
321.391 10.2416 0.484331
368.166 9.94353 0.525824
404.612 10.9623 0.579191
430.603 8.80884 0.469796
315.08 9.09492 0.541026
349.948 8.64532 0.478995
301.593 9.89265 0.528524
353.674 10.206 0.555192
295.021 10.1226 0.551634
369.096 9.22091 0.513978
300.876 9.7276 0.553426
321.143 8.90053 0.508475
302.798 10.5555 0.654317
398.396 12.4784 0.781308
289.42 10.1601 0.60516
340.427 9.33681 0.594334
269.211 10.4859 0.70486
323.879 9.9075 0.669242
258.436 10.1156 0.687287
267.13 10.7917 0.721587
255.537 10.6725 0.718192
252.373 10.1076 0.691128
213.226 9.14764 0.628932
228.262 9.77114 0.691591
241.304 10.3039 0.727339
199.184 9.37402 0.711605
209.679 10.2976 0.790222
234.353 11.0179 0.807286
199.952 10.0506 0.78133
188.801 9.21313 0.68864
181.716 8.48554 0.683235
179.539 9.21665 0.784797
176.551 10.2305 0.870855
189.707 9.93347 0.860653
195.42 9.90362 0.870633
194.569 10.1821 0.976458
182.423 8.44169 0.750024
185.641 10.5204 0.894524
182.383 9.93135 0.885007
184.483 9.75799 0.916828
211.982 11.3173 1.00503
181.739 11.1657 0.977886
177.477 9.35344 0.918173
196.959 8.98622 0.905553
171.866 9.55835 0.967741
198.936 9.53685 0.960402
159.634 8.73001 0.887576
189.243 10.3886 1.10438
174.45 10.0742 1.05483
180.801 9.37272 0.985026
157.597 8.95314 1.02012
214.919 9.81735 1.03768
160.848 9.32517 1.0492
171.249 8.51152 0.921996
160.338 8.84595 1.03039
162.113 8.92952 0.990827
156.133 11.8047 1.33909
163.142 9.28293 1.06886
161.75 11.5778 1.34434
153.781 9.69124 1.09993
142.387 9.81471 1.17759
142.482 10.362 1.22214
135.544 8.8743 1.17417
120.243 9.16255 1.14197
136.674 9.28323 1.18265
111.365 8.596 1.08743
130.216 9.80895 1.2739
130.975 10.368 1.31992
109.313 10.5168 1.35574
129.237 12.878 1.62799
126.815 10.1214 1.38535
113.467 8.6385 1.17943
135.243 11.3078 1.47014
121.105 9.60011 1.28319
119.352 10.1629 1.44073
129.082 11.746 1.59712
99.0963 10.05 1.42671
109.922 9.10243 1.31333
118.524 9.19887 1.35381
127.875 10.7711 1.59069
128.832 11.1172 1.69542
129.198 12.4705 1.88938
101.515 9.58231 1.49669
128.802 12.5726 1.93559
110.043 9.56033 1.62188
130.211 9.44435 1.47548
107.222 10.4485 1.69093
129.375 9.85336 1.58648
113.075 9.58897 1.60528
121.657 10.4367 1.68138
104.859 9.94763 1.65471
124.763 9.75063 1.6859
112.413 9.21623 1.55687
121.111 9.88678 1.69144
110.44 10.5275 1.76384
111.211 10.8308 1.88172
103.828 9.88798 1.68391
106.818 11.0897 2.00575
110.141 9.44994 1.65325
105.504 8.7591 1.60056
94.5139 8.9508 1.62881
102.217 10.3954 1.91013
78.2935 9.66973 1.78531
94.6137 9.33296 1.68662
84.8029 10.0038 1.88005
86.4635 9.60336 1.87431
92.9287 11.4436 2.31959
93.8903 9.97175 1.95956
79.5508 10.125 1.99094
85.2722 10.2271 2.03773
80.1217 9.07322 1.80899
78.6243 10.2552 2.13844
89.4082 11.1679 2.29475
77.0493 10.0178 2.01121
74.4154 10.2225 2.0659
78.9224 10.4173 2.12544
76.5455 9.86658 2.14665
77.0614 10.4969 2.25452
76.3081 10.3173 2.27837
72.7528 9.08791 2.0116
81.7407 10.0456 2.19407
86.3399 10.3544 2.33782
81.0406 10.3069 2.39191
75.8725 9.28424 2.17072
81.4133 10.1481 2.4352
86.8352 9.20435 2.18763
68.8011 10.5302 2.49369
87.1281 9.55338 2.29774
74.9527 11.2374 2.73476
87.9898 9.38339 2.30254
71.5233 9.88162 2.46295
99.0634 9.79778 2.46547
78.2138 10.6768 2.47336
89.104 9.41667 2.33918
66.9057 10.0455 2.66946
86.0394 11.1841 2.88203
72.6512 9.19219 2.34471
86.2118 8.51321 2.29208
67.0839 9.08384 2.3072
89.5257 9.48951 2.53078
64.505 8.9728 2.38264
79.8203 10.4076 2.83541
72.7484 9.14496 2.51939
72.3062 9.86009 2.6252
68.6721 9.02432 2.60365
67.5853 10.1497 2.71269
67.5622 9.73043 2.67033
66.6123 8.8415 2.44501
62.8035 9.06141 2.54105
70.7446 10.3106 3.0127
62.6378 10.5657 2.98721
65.6901 11.3593 3.31962
63.6917 11.1442 3.10916
64.1329 10.6634 3.18103
71.5622 9.82998 3.02409
57.272 11.0396 3.2328
63.1207 10.7365 3.30825
71.7567 10.6828 3.24668
57.8985 9.27138 2.82835
58.0366 8.74441 2.77395
73.4575 10.9969 3.49313
78.1317 10.8627 3.35249
58.3777 10.2177 3.21952
75.3631 11.2831 3.63671
63.7523 9.62498 3.09979
73.3553 9.46901 2.98429
58.9436 11.803 3.69275
72.2247 10.687 3.432
55.3216 9.96744 3.37491
85.4762 10.606 3.42962
54.8051 9.584 3.07974
79.8803 11.1548 3.69501
49.5698 9.84619 3.33689
74.3571 10.1043 3.47446
63.0577 11.3773 3.9475
66.4784 8.73048 3.00142
51.1784 8.99886 3.32401
71.5404 10.8274 3.79064
53.0101 9.16647 3.17087
60.337 8.79655 3.1223
54.3557 9.67386 3.46107
67.9034 9.31249 3.33452
55.6579 10.213 3.68405
64.5576 9.76236 3.53737
48.2366 10.1615 3.81327
49.404 9.15868 3.42669
51.0719 9.9638 3.83149
56.2751 10.3724 4.00165
52.0905 9.41877 3.62724
52.3926 9.561 3.5807
56.1479 11.6513 4.53399
48.986 10.6399 4.10615
50 10.8398 4.06746
46.5507 10.9398 4.29817
45.5461 10.5413 4.34349
51.6725 10.9051 4.14653
46.8785 10.1482 3.89315
40.0116 9.2099 3.85585
51.8178 9.58594 3.79214
46.5749 12.6307 5.33963
48.6792 10.2075 4.11836
46.3671 9.02047 3.62902
49.8383 9.59719 4.03106
47.9684 10.6177 4.48598
44.1762 9.10187 3.68099
52.2784 10.1394 4.2261
47.4603 10.1483 4.25075
59.4379 10.8501 4.48634
45.6184 10.2791 4.38203
55.1718 9.90439 4.37078
42.1352 9.21156 3.91976
58.2479 10.5233 4.28694
47.0469 10.5772 4.68934
56.5269 11.2603 4.93664
43.3978 9.9308 4.44239
45.1371 8.35459 3.64333
42.3457 10.0328 4.68616
56.9744 10.5747 4.77561
35.2825 9.4676 4.29987
54.0489 10.9436 5.17942
32.482 9.11977 4.3684
50.0766 9.06184 4.535
34.3991 10.5659 4.95129
50.0811 11.0574 5.26139
37.385 10.242 5.08348
41.7065 10.1386 4.78804
29.4533 9.3019 4.81484
49.7351 11.8628 5.37997
32.4648 9.85213 5.0405
40.0374 10.1434 4.77815
38.1928 11.4174 5.68057
40.0386 10.5787 5.16106
34.0331 10.3136 5.08612
32.6017 11.3308 5.54925
34.5011 10.6531 5.18977
32.1501 10.0751 4.91266
34.1195 10.1623 5.15704
28.3518 10.377 5.46797
35.6933 10.6518 5.49902
31.9334 9.88906 5.16294
33.2746 10.4187 5.20947
34.3919 10.9526 5.83098
35.8848 10.5607 5.39778
35.4787 10.9554 5.91552
32.1379 9.92952 5.16385
37.1498 11.4422 6.28166
36.6889 11.9251 6.30263
33.6384 8.64222 4.54859
30.028 8.75851 4.81331
34.2313 9.32946 5.01626
31.2914 8.61637 4.72408
37.2598 10.4666 5.89022
29.2909 8.8431 4.97331
39.2962 10.4577 5.8599
32.9548 9.37806 5.59525
40.3506 10.924 6.07742
35.2336 10.9338 6.19202
43.4217 10.2371 5.74045
36.4562 12.8278 7.44773
37.5636 10.5634 6.01316
31.1694 9.63303 5.60819
38.014 9.89204 5.72167
30.1897 11.5207 6.74268
35.0051 9.24112 5.13376
31.4756 10.7151 6.40712
37.5854 10.8789 6.3182
32.3091 10.9282 6.5413
36.389 10.9364 6.35871
30.5225 11.035 6.40959
34.3967 9.95091 6.1242
27.9037 10.1763 6.00228
33.6797 12.8725 7.88716
24.7078 10.4965 6.44659
22.9787 8.17104 5.0588
23.0721 9.38526 5.97262
26.4087 9.93973 6.17509
26.0193 10.7614 6.86106
25.9891 9.94553 6.66585
29.7508 11.5661 7.21012
29.6952 11.8105 7.25364
25.0124 9.98059 6.47181
28.2313 10.9675 7.02773
27.169 11.356 7.14362
28.68 11.3395 7.06578
27.5814 10.0886 6.47956
25.9901 10.3389 6.77973
26.3545 10.7612 7.19747
20.7327 9.16732 6.41203
25.959 11.0169 7.58202
27.3694 8.85948 5.25442
25.356 9.43823 6.74488
27.588 9.57162 6.43765
26.8188 9.17018 6.16768
30.2181 10.6001 7.22722
29.291 11.19 7.63914
25.9105 8.97617 5.92883
22.7458 9.07196 6.55303
29.7136 10.6649 7.23537
28.0985 11.7185 8.51003
27.2053 10.3709 7.61242
32.1322 12.0567 8.40388
25.9536 9.11432 6.77214
21.7393 9.4218 6.82019
29.2669 10.4973 7.41239
22.15 8.70372 6.85837
28.1889 10.3989 7.82344
30.4556 12.1311 8.5955
27.7525 10.2192 7.34039
22.1834 10.906 7.89314
28.6268 10.8751 7.95611
29.1269 11.048 8.07888
24.2388 9.3705 7.07103
23.2752 9.65449 7.49493
24.7869 10.5621 8.29661
24.3986 10.4171 7.91655
22.0905 11.1526 8.52607
22.5441 8.80801 7.24191
22.9193 10.8899 8.43852
19.5442 9.8451 7.36408
22.12 10.4896 8.11093
21.9565 11.0486 8.56788
19.3561 9.61541 7.56876
20.8005 10.1251 7.60744
21.8779 11.2916 8.77925
20.7052 10.4262 8.17988
17.7977 9.19448 8.21267
22.7793 11.1696 8.17758
18.3533 9.45917 7.63945
23.2303 9.82346 7.87555
19.5932 11.2352 8.72056
20.7316 10.0815 8.08734
22.8818 10.1331 8.37308
20.5552 9.49729 7.76605
25.2359 12.0921 9.69579
19.6523 8.09109 6.83401
27.6046 12.3888 10.1294
26.5543 13.1483 10.3739
22.3218 10.09 8.29248
24.6567 13.7604 11.1675
23.7701 9.67073 8.55522
18.3574 9.09597 7.987
21.3387 9.67472 8.27055
22.6551 11.4192 9.76819
25.0547 9.47668 7.88071
19.2311 10.8951 10.0084
25.4087 12.1483 9.58619
20.9094 11.0441 9.81317
25.2319 10.7902 9.46024
17.4935 10.2268 9.17056
23.622 11.8894 10.6881
22.1173 12.4478 11.2899
19.4361 10.5618 9.0762
18.4632 10.1944 9.12442
21.1839 11.1053 9.57791
19.2486 10.8295 9.34337
18.353 10.8456 10.0193
18.4386 10.2466 9.17014
20.5142 10.8946 9.86168
19.2323 12.2052 11.1808
20.6609 11.1485 10.3867
16.5727 11.3642 10.1254
21.2283 11.8976 10.7285
17.4332 11.3223 9.90558
17.5378 11.456 10.6924
15.0955 9.20862 8.53003
17.5699 10.9358 10.7548
16.5672 9.50142 8.71256
16.189 9.8102 9.0088
16.0877 8.87204 7.86082
17.8997 10.2778 10.1389
18.1682 11.4033 10.9553
22.2991 11.762 10.4386
17.3367 11.4045 10.69
19.4844 9.67771 9.85119
17.0571 11.3018 11.2441
22.1342 12.4882 11.7518
16.4519 10.5435 10.1866
21.0835 9.56565 9.38273
18.0023 11.6065 11.2736
22.0214 11.6721 11.0951
20.1934 13.3664 13.4075
22.9613 11.5025 11.776
15.6352 9.75688 9.44662
17.6712 10.1429 10.1069
18.1457 11.2628 11.3466
19.9552 9.56716 9.87067
18.6261 11.3622 12.1518
22.7644 9.63115 9.87945
17.1438 11.0367 10.8739
19.0632 10.2534 10.5918
14.718 10.0086 10.7934
19.4833 11.2613 11.4769
15.4976 9.57111 10.5612
19.8734 12.3558 11.9157
15.1982 10.4729 10.9943
17.0147 9.50454 9.98509
15.7444 11.2736 11.7259
16.3974 10.9488 11.1822
14.8392 10.503 10.6421
15.3836 10.3512 11.8408
14.5071 12.5884 13.3633
15.8599 11.1438 12.1127
15.2913 10.735 11.2488
14.3992 9.57665 10.837
13.3766 10.3995 10.972
13.3465 10.7547 12.1249
14.4016 11.674 12.5029
16.2376 9.77761 11.4064
13.5643 9.22386 9.83539
13.8258 8.99189 10.2561
14.8492 11.5964 12.1231
15.9686 9.58338 11.8273
16.6147 11.5148 12.1715
15.6465 10.2714 11.8048
16.2529 11.4559 12.7766
18.5275 10.5018 11.4801
13.915 11.3606 12.9871
18.7751 11.556 13.2464
18.1834 11.0255 12.6646
21.0932 11.6071 13.8161
15.2901 10.0489 11.7274
19.4881 11.0188 12.0591
14.7125 9.93357 11.9065
16.8994 9.94361 11.3039
14.687 10.2758 11.8373
19.1364 10.422 12.6756
14.0184 10.1268 11.6731
18.024 11.4189 13.0085
13.195 9.55819 11.9071
17.1275 10.0375 11.7686
15.7113 9.92033 10.9694
17.5193 9.69949 12.2399
16.7998 12.238 14.1548
16.1123 9.89621 11.7186
16.7677 12.1294 14.1222
15.774 10.6086 12.7576
14.7919 10.5036 13.3468
14.075 9.69162 12.363
15.0419 10.6575 12.4805
14.0611 10.2459 13.793
15.2584 11.5173 14.206
13.7497 9.78228 12.5166
15.0157 10.7131 13.3055
14.6125 10.765 13.1928
15.9058 9.61249 11.7123
13.8538 12.0897 14.9967
15.5506 11.7994 14.6971
13.0637 9.96111 11.5693
13.9445 10.1506 12.871
12.803 11.8226 14.6497
16.6892 12.4632 15.6509
14.2595 11.2315 14.3615
15.5945 11.1811 13.6207
15.0254 10.4234 13.6745
14.5431 10.7165 14.2028
14.0252 10.4939 13.7581
13.8738 10.7944 14.1073
16.9649 11.4297 14.4367
12.2619 9.90337 13.7974
17.7081 10.5437 14.0852
15.0434 11.415 14.3618
17.4553 12.3433 16.2181
15.6975 12.2679 15.6708
16.02 9.80517 13.2326
14.7183 11.0621 13.8311
16.8825 10.7243 13.9249
12.1326 11.7566 16.27
16.142 11.4283 16.3098
17.5229 11.4285 14.5346
16.6134 11.8864 16.8788
13.0371 10.7007 14.4152
16.3986 12.3224 15.0761
11.693 11.2092 15.5573
14.4707 13.313 20.0734
15.8482 11.1174 14.4526
15.0706 10.5545 14.8202
13.8823 12.1643 15.8332
15.1406 10.8779 16.3066
14.2508 11.5443 14.6186
12.6751 11.8115 16.8301
15.0846 12.0676 16.9614
14.2847 13.9204 19.0372
13.2332 10.5128 14.9172
12.8185 12.2485 17.9483
13.2002 11.1784 14.6943
10.6827 10.3488 15.5823
13.906 10.1216 15.1081
13.8044 11.983 16.9025
12.1632 11.2535 16.1274
11.5454 10.3087 14.5475
11.9868 10.4166 15.2812
12.9043 11.2167 15.1045
12.3225 10.751 15.1327
11.2235 10.8138 16.5892
11.8297 11.0975 14.9361
10.5212 10.415 16.453
13.4217 11.6555 16.3444
14.377 11.6162 16.4962
13.424 12.3105 18.8475
14.9902 12.3413 17.6029
13.0264 12.1022 17.2944
11.5801 9.80733 14.846
13.4863 11.7164 18.7125
14.581 11.5751 17.9491
13.2285 12.0554 17.4614
15.9386 12.8109 19.4458
12.6053 11.014 16.334
15.6411 11.8091 17.4706
12.0662 9.43717 13.8192
13.9166 11.6335 17.1909
12.1973 11.1102 16.1581
14.1651 10.9659 16.1192
11.0373 10.7741 16.5663
15.3931 12.1374 20.4315
12.2967 11.381 16.9099
14.1691 10.3306 15.7362
10.2474 10.7144 17.4413
17.0482 12.748 19.7945
13.3351 11.0956 15.784
12.3883 10.9888 16.9243
9.6761 11.1561 18.3987
14.3238 12.711 18.7771
11.1978 10.9225 16.979
14.7009 13.5015 20.693
11.0513 10.5721 16.3763
12.206 10.8167 17.7104
11.478 12.2892 19.9315
12.8321 11.2778 16.5721
10.3076 10.7474 17.1128
11.8345 10.9903 18.0613
11.6162 10.6851 17.9776
12.3427 12.833 19.5724
10.925 11.8707 17.9406
11.854 11.5954 18.8057
11.5047 11.5625 18.0596
11.8415 10.8145 18.756
10.7145 11.2617 18.1757
13.5267 12.5752 20.4565
11.6051 10.8441 18.2896
13.3832 13.0418 20.5848
11.147 11.6052 17.3516
12.7625 11.8644 19.4103
10.7877 11.7901 20.6024
13.1937 10.583 17.6167
10.7063 11.1394 17.8419
14.3833 10.7329 18.9064
12.6888 10.6844 17.6218
14.0376 11.363 18.9614
10.9597 10.7252 17.5905
13.9119 11.7218 18.3539
9.984 9.90479 17.9066
13.9037 10.7393 18.9891
11.0831 10.9297 18.1983
14.2432 11.6717 20.2629
12.4033 12.3404 20.6797
13.4303 8.81841 16.4417
10.0931 11.297 21.3382
15.946 10.8202 17.6559
11.1549 11.6928 20.5055
12.2477 9.48102 17.1383
9.88905 10.4648 18.0899
13.1531 10.774 17.1728
10.8933 11.6699 20.6903
12.7464 10.7246 17.077
10.2586 10.605 19.6335
11.9608 11.1785 19.3737
11.5644 11.5945 21.0746
11.9514 11.2589 17.5533
9.8174 9.65197 17.2376
10.7704 13.2023 23.7907
11.4598 10.9561 19.4991
10.4552 11.0898 18.6702
10.3771 11.4117 21.5011
9.93139 11.957 23.1481
11.0322 12.7354 19.6733
10.8044 11.0991 20.1729
11.4401 13.2374 21.5951
10.7881 10.8563 20.8699
10.7689 11.1679 20.8566
13.8711 12.458 21.8347
10.3559 10.3952 18.2587
12.8389 11.2722 19.544
10.353 10.599 18.9379
12.9524 12.4057 22.0876
9.76608 12.3076 22.1136
12.8211 10.0711 18.1993
11.1745 11.4782 20.5392
14.377 12.4465 24.3509
10.6565 12.5108 22.7431
10.6774 12.0543 21.7999
10.2472 10.9478 20.2345
14.3993 13.7315 27.3162
10.9493 13.1959 24.0557
13.361 11.102 19.4663
8.88428 11.2054 21.5924
12.4584 11.5518 21.0228
9.91702 12.9629 22.6653
12.526 12.2129 24.2805
10.5572 12.5547 24.1288
11.4156 11.488 23.2908
10.0222 12.3235 20.7328
10.6068 12.0977 22.7779
9.51324 10.3004 21.5999
10.4177 11.3408 22.0872
11.33 12.259 23.3266
10.1335 11.098 20.6538
9.43116 10.7717 20.8428
9.20945 11.6156 22.6422
9.71955 11.2113 20.9282
8.95828 10.8926 20.5863
10.1526 13.4177 27.127
8.78449 12.4656 23.3223
9.21769 10.4729 21.5128
9.01159 13.0184 24.2413
9.4315 10.8238 22.3941
9.59624 12.4327 21.9614
8.44135 11.6214 22.5078
8.49432 11.5921 23.2444
9.05614 13.2785 26.026
8.73601 10.2373 21.3479
9.71474 10.9956 23.5508
11.206 11.9575 23.8279
9.92348 12.2367 22.871
10.8404 14.2364 28.5293
9.74735 12.5911 23.5812
10.6077 11.5233 24.4517
10.7369 12.6988 23.1511
9.50721 11.1667 22.9569
9.15435 11.2138 22.9977
10.6419 11.1192 22.4003
10.6055 12.2039 24.422
12.2253 13.292 26.8695
9.64035 12.5684 28.3162
11.5386 11.5429 22.0328
10.2807 11.9254 22.1404
12.1078 12.7648 27.2482
10.2645 11.7973 23.4477
12.2996 11.0996 22.5447
10.3371 12.5786 25.1789
10.4606 11.052 23.2348
9.00409 10.3719 23.9441
10.679 12.829 25.6792
9.10165 12.7653 27.5598
10.6942 12.061 24.1143
9.77323 12.8989 26.9909
9.45018 9.69245 20.1922
8.8139 13.1495 25.5168
9.18498 12.3015 26.1437
9.12662 10.4441 22.3023
9.32767 13.5465 27.0452
7.61275 11.5158 24.9703
7.23541 10.3939 23.9535
9.36077 11.3319 22.9393
7.88235 12.1524 23.975
8.88674 12.7441 30.4767
8.12473 11.2352 23.9135
8.31292 11.0749 25.2197
8.08393 12.0877 23.3408
9.42706 10.7846 23.8661
8.2551 12.1739 27.4479
9.35511 14.2745 30.0938
8.58153 12.8987 24.278
8.37458 11.7107 24.5422
8.11637 13.7201 30.0266
8.5563 12.0373 26.1083
8.85995 10.9915 24.8691
10.0746 13.439 28.0448
8.96124 10.6716 23.4552
8.28917 10.8017 24.4359
9.30318 10.2771 22.4378
10.5056 13.9069 27.8101
9.44348 12.1276 26.4395
8.34985 12.4299 28.0825
10.4527 12.4613 30.0467
10.7767 11.8642 23.4629
10.4944 11.6929 26.8841
8.78815 11.7466 28.4821
10.227 11.6601 24.6
9.00521 12.297 24.6707
9.47156 12.686 28.3502
9.65984 12.7107 30.6604
9.76542 12.6047 25.9174
6.95623 10.1985 26.2819
8.94011 11.8079 24.2549
7.71275 11.3253 26.1489
8.85742 11.5614 28.4134
9.40564 13.7214 27.0577
8.01042 10.5567 25.2951
8.66944 12.2491 27.7652
7.89681 12.1031 27.5257
7.09919 10.5269 26.1179
7.02767 10.9801 24.5764
6.91545 11.1966 25.3451
7.51287 13.0412 30.4237
8.33233 10.8178 26.5868
7.80218 10.3194 23.7174
7.85297 12.8937 28.8808
7.88318 11.6418 26.4237
8.21457 10.4714 25.3217
7.72372 11.2149 28.0937
8.33046 12.0362 28.6909
8.15643 12.2532 25.9744
7.62807 10.9882 26.1891
8.27839 14.131 31.2893
7.6157 11.6855 29.2929
8.80946 11.3959 25.0492
7.44977 10.3917 25.1352
8.18257 11.3748 28.0333
8.83697 13.2963 30.9462
9.48331 13.5744 32.0174
7.4932 10.3758 26.4676
9.64426 11.82 25.9789
6.65559 10.726 25.9828
9.92943 12.5325 29.4307
8.7003 10.597 24.6879
8.81844 11.3488 29.9962
9.333 12.406 29.7123
10.5328 12.4121 29.2771
7.7451 11.2794 26.8494
10.5702 12.9109 29.7459
7.9888 11.8553 29.0898
10.4162 11.3773 26.7768
6.90323 10.8182 30.6653
11.0993 11.8443 25.9233
7.02881 11.378 25.0415
8.79713 11.6373 28.1647
6.24788 10.2976 25.8899
7.12872 9.69154 27.5833
8.5502 13.6496 33.1634
8.95907 12.1024 33.8976
8.31847 12.4246 27.2887
7.55493 11.3046 29.6058
7.32428 12.3892 28.5077
7.36514 11.7809 28.5557
6.85026 9.63859 23.7042
7.04658 12.378 32.3617
6.98656 11.4721 27.3424
7.63508 11.1747 30.0249
8.07063 11.4256 27.9685
8.69233 10.3627 27.0022
8.27625 14.5531 33.3066
7.68247 13.9743 35.4191
7.07401 11.8097 30.7505
8.15436 12.1266 30.1764
7.43959 11.13 28.0792
8.3557 12.4025 32.2236
8.77837 12.0938 28.78
8.17542 11.0287 28.9025
7.72814 12.0456 30.4371
9.35156 11.2679 27.5555
8.18428 11.9696 31.3455
9.83368 12.0232 29.8834
6.94766 14.2435 36.2791
10.3232 12.3657 32.6922
7.27416 12.9285 31.5458
10.9414 11.6127 29.3652
8.2785 12.8093 31.8662
10.2408 12.5704 35.7106
8.66158 13.3092 33.6903
10.6829 11.8757 29.4383
6.87972 12.8097 33.2377
9.42581 12.2742 32.8491
7.81882 11.072 28.8581
10.7844 12.019 31.644
7.13814 11.8235 28.6438
9.32387 13.3359 33.1181
7.93067 11.3297 31.4724
7.3613 10.9825 32.5048
8.64816 12.8891 30.5282
7.98062 11.128 30.8287
8.05682 12.4993 31.1579
8.74011 12.1255 31.1213
7.59442 12.7139 29.761
8.02976 11.5605 32.3205
7.74679 11.5059 31.5375
6.92489 11.4431 29.6853
6.20951 9.78914 28.653
8.18152 10.3512 28.656
8.65056 12.1227 29.5529
7.32696 11.8257 32.3794
8.08204 13.4424 34.0065
7.67714 11.7628 33.9678
8.62479 14.4682 34.511
7.41097 12.2483 32.2277
7.11838 12.1332 31.3352
8.44279 12.7241 32.6271
7.83614 11.266 32.1258
7.79648 11.706 32.7523
9.17247 12.0667 34.5634
9.3658 13.0671 32.2247
7.81518 11.4709 31.1598
8.69793 11.9661 32.399
7.84048 11.2943 32.5844
11.6007 12.7836 33.9236
7.05064 10.9643 31.7797
11.2764 11.8062 28.9919
7.48478 12.6886 33.7348
10.8594 12.9364 35.3435
8.74184 13.7925 40.3865
11.9459 13.228 36.5373
10.4044 13.99 37.7596
10.3762 11.4228 32.3717
9.54593 11.5771 34.5579
11.3924 12.576 32.5404
9.19569 15.0084 38.7735
10.9152 12.5995 37.0495
9.09276 12.9547 31.6054
11.4699 12.9204 35.5608
8.78031 13.5383 38.3359
10.0583 12.2379 34.1975
8.44309 11.1792 30.6612
9.14037 12.2426 38.9767
9.92887 12.5169 35.0408
8.83992 12.5018 31.9045
7.488 12.3979 41.1176
8.10251 13.1455 36.2818
8.0473 12.2535 33.3248
8.02935 12.6186 34.6451
8.81822 13.0785 33.6809
7.80973 14.099 39.6574
8.49762 13.6597 37.7408
7.02334 11.3058 32.7856
8.54984 11.2517 28.8277
6.18033 11.3127 32.9732
6.99922 10.1801 30.6832
7.60842 13.1122 38.7806
8.19476 11.4555 32.7285
7.81669 14.2695 38.4829
7.64201 12.6632 37.36
7.43534 12.3471 33.5959
7.16385 11.7152 34.6637
7.28418 12.5743 37.2334
7.5189 12.3096 34.0017
8.39311 12.9111 35.6203
7.79983 13.4006 40.2995
9.05258 13.9451 41.9131
8.1985 13.4978 35.7394
7.75474 11.9616 35.6866
6.82349 12.3306 37.8102
8.87526 13.6158 36.475
6.87861 11.1585 31.3903
7.92704 11.9992 34.8598
7.47819 12.4443 36.6468
8.63584 11.0046 33.0399
6.49958 11.7409 39.3523
9.28494 12.9404 33.6717
6.80442 14.3417 40.3379
9.03603 14.5072 38.759
7.60321 13.4644 40.3468
8.99255 14.0739 42.3296
6.75927 11.2971 38.5278
8.44735 12.4085 32.1207
5.92357 12.4515 36.9908
7.90475 12.6105 37.9603
6.91106 11.7214 31.7069
6.31382 12.5496 42.0589
6.33371 13.5414 39.7685
7.44937 12.2727 38.7235
6.73351 13.342 37.9737
7.43365 12.103 34.9058
6.85683 14.2058 42.646
7.42257 14.4949 40.2692
6.90238 13.759 40.9112
7.02235 13.3633 39.9705
5.88963 13.6039 45.8866
7.83922 12.928 38.0157
7.12057 12.8753 40.0038
7.42446 12.6196 39.4702
7.00016 13.1857 39.6333
7.12325 12.9691 40.9058
7.18944 13.2509 35.0625
5.53732 10.4556 37.8167
7.45713 12.7023 34.6005
6.17068 11.0501 35.4606
7.37992 12.9044 39.4477
6.62637 12.948 32.4851
6.42153 12.3899 39.7267
7.34051 11.1962 37.7606
6.0915 12.6726 34.8877
7.17559 10.9434 35.1645
6.87669 13.0224 39.7056
7.45846 12.5938 36.197
6.4557 11.3507 35.7267
6.90076 12.0048 39.9006
7.09792 13.804 40.1175
8.05513 13.9869 38.7001
5.70769 11.6159 38.8424
7.8382 11.8701 36.8802
6.53388 11.8467 36.9471
6.91909 11.2419 40.5478
7.15072 14.1499 40.3924
6.8186 12.2681 36.541
6.23555 12.1363 34.6617
6.09005 11.9078 38.6813
6.53812 12.378 39.179
6.1317 12.9791 37.9968
5.25623 12.4236 39.2004
6.21093 13.4782 43.6952
6.00526 12.0428 38.0814
5.75621 12.4208 38.4562
5.71502 11.7765 38.2117
6.44007 13.0863 46.0016
6.43882 14.8878 42.0566
6.97377 14.143 41.2066
6.25805 16.259 49.7782
6.37802 13.7697 47.1877
6.64085 13.4195 42.5049
6.20848 13.9425 41.5528
6.34618 12.9146 42.2134
5.95555 12.2563 38.1082
6.45387 11.5578 36.7767
6.22098 11.7764 40.4713
6.64959 12.6693 35.9926
5.87897 12.2285 38.9702
6.77044 12.0374 40.8265
6.17028 12.3318 39.1226
6.36704 14.2245 45.0975
7.45283 11.5334 37.639
7.06524 12.1598 46.2723
8.72098 14.1972 38.0412
6.82703 12.9462 44.8188
8.37683 12.98 41.4797
7.61982 12.1928 37.2252
6.82453 11.3329 40.4593
6.4844 11.3522 35.2082
7.76017 12.8522 41.3871
6.86679 14.4562 45.6166
8.0736 12.7221 39.0353
7.15005 13.4501 44.8899
8.82715 13.9964 39.8068
6.06182 11.3784 37.0851
7.27106 12.7528 45.6404
7.71641 13.6632 45.5279
8.51441 12.9955 35.9441
5.66945 13.5614 45.3054
7.84916 14.6028 46.2763
7.525 12.1528 42.57
7.62814 13.4975 43.2089
6.84056 12.9222 45.593
6.75927 14.1861 40.0676
6.00093 13.7165 45.409
6.8128 12.8806 41.1162
6.00612 12.5916 43.8147
6.54533 13.7648 48.7316
6.64246 11.9324 41.0622
5.90803 11.1861 38.0133
5.18844 11.3596 37.3972
6.33177 13.4973 39.3671
5.28569 12.516 42.0456
6.00246 11.9549 46.5491
6.75185 13.3394 40.626
6.16768 12.8226 41.1826
5.83624 12.5254 43.9411
6.60839 13.1232 38.7713
5.91005 13.4417 43.8271
6.3491 12.6852 45.5353
6.8813 13.2862 42.1738
6.06067 12.5213 40.9603
6.94634 16.5449 45.7976
5.92127 12.1572 47.9496
6.96314 13.8577 42.4659
7.35875 12.0423 40.2496
6.67146 12.2579 40.701
7.33094 11.3181 36.7683
5.67463 12.1572 41.3
7.05972 13.3677 44.0258
6.4495 12.4214 43.3801
8.0617 12.683 43.7498
6.36455 15.1747 51.5853
7.48168 13.5335 40.1786
5.59589 12.4332 44.9509
8.25925 12.5623 42.8697
5.94637 10.7263 38.9966
7.36623 11.6361 42.495
6.11725 13.1555 44.7621
7.41139 13.0703 43.5456
6.694 14.165 48.4748
7.04421 12.3608 35.8545
5.72243 12.4042 45.3406
6.54701 13.0109 45.7598
6.26533 12.5766 39.2566
6.04902 12.8828 41.2477
6.03632 12.9712 43.2256
6.03626 13.7942 53.6273
7.2424 16.1898 49.1505
6.01503 14.1153 50.808
6.652 14.2407 44.6278
6.33539 14.559 45.056
5.72971 12.0632 48.1823
6.34618 14.0844 44.6575
5.961 13.9804 51.3476
6.21078 15.603 47.5123
5.16934 14.1238 54.4538
6.29803 13.2774 44.2391
4.88781 12.865 46.2951
6.08889 14.1058 50.5298
5.90783 12.2605 41.0767
5.70014 12.2289 45.564
6.13826 15.3215 49.9489
6.61874 13.6908 48.4113
5.4808 14.519 47.7822
7.21184 12.1366 45.4952
5.7486 12.2558 43.5199
6.58953 12.8498 42.8068
4.71015 12.982 47.607
7.84583 14.8019 48.3266
5.06844 11.7763 43.7807
7.31445 12.0198 44.0463
5.71546 13.0528 42.2393
6.50686 12.7885 50.3462
6.15319 14.2412 44.2129
7.47131 11.848 40.3148
5.18017 11.79 38.838
6.51347 13.0681 45.9849
5.06901 13.0478 47.4709
7.04228 14.0568 46.3332
5.57908 14.0444 46.1502
6.42604 11.4073 38.2072
4.4942 11.7105 41.8718
6.22854 12.4932 47.7829
5.63081 13.9769 45.9503
5.56418 11.94 39.8335
4.79852 12.2497 46.3381
6.49075 12.1514 44.7556
5.32323 12.3557 43.7523
5.36874 12.4864 46.7569
5.90605 14.601 45.6857
5.8491 13.0615 48.9454
5.6888 13.6114 50.2101
5.14756 14.6654 49.0302
5.47589 12.5324 47.4381
5.73971 13.9227 47.5768
5.72173 12.596 44.3884
5.37952 12.8558 45.8731
5.0367 13.1422 42.9513
6.14218 12.6518 44.1939
5.19419 10.5744 42.6833
5.75791 13.6784 44.8642
5.4792 12.3704 46.6086
6.30147 13.2496 51.8651
6.01535 16.2213 53.3476
7.16816 13.7627 49.8833
4.99242 13.1622 47.9286
6.38512 13.7044 50.5556
5.67857 13.4976 48.5947
8.07294 13.0324 49.227
6.00436 13.6891 48.1009
6.81784 13.824 48.4959
5.27232 11.548 43.4037
5.9966 12.0822 44.1134
5.42143 12.8974 50
7.94492 13.168 45.8276
5.17315 13.9404 44.1404
7.17907 13.3236 47.1291
5.27536 13.8316 52.4402
6.75531 13.6016 49.8648
5.63022 12.798 48.5269
7.79763 13.7661 51.7213
6.98256 13.1887 55.2867
7.6846 13.7628 44.2561
5.66624 13.4856 42.7742
6.60266 12.9535 47.8158
5.77934 11.9388 41.8387
6.5755 12.3155 47.3068
5.63957 12.8845 43.2833
6.86705 13.4322 44.4517
5.48021 12.3513 49.9689
7.10907 12.8151 44.4739
5.49888 12.4924 47.7072
6.53394 11.9407 45.5883
5.28497 12.6088 46.2031
6.41144 12.7221 45.1636
6.39698 12.9288 43.9687
6.05006 12.394 45.3702
6.10897 11.9309 42.9279
5.9849 12.1896 49.3662
6.63991 14.3424 48.588
5.95248 14.715 55.6496
6.85489 13.1987 44.6503
6.54234 11.6583 48.645
6.91822 13.8251 51.1807
7.56841 13.6925 46.3093
6.37386 11.6679 44.8692
7.07775 15.5 55.0045
6.79241 13.5048 54.3127
8.35247 14.1666 48.6393
6.65536 12.6091 43.2963
6.93486 13.8374 46.4994
6.543 12.7252 54.2669
7.52339 13.0005 49.5012
6.7732 13.625 51.1161
7.00848 13.2154 50.8879
7.66216 12.999 42.4711
6.85005 11.6058 41.2038
5.29716 12.2602 45.0117
7.0153 14.4832 57.1627
6.99542 13.3252 52.6299
7.32241 13.6515 52.4044
6.05244 13.5839 44.8475
7.64288 11.8643 45.5776
5.26914 13.6848 53.9592
6.92668 12.8336 46.7081
5.93776 13.3257 47.0792
5.95422 14.0199 48.7852
5.74074 13.5477 56.4126
6.44269 11.7057 51.5205
6.4714 13.9383 54.9307
7.70996 14.1362 42.9281
4.68419 11.8525 45.7951
6.74697 14.354 46.5033
5.5829 11.1382 45.852
5.83143 13.4799 49.5037
4.96228 13.7032 45.9262
5.47283 14.2275 56.6282
5.75637 11.1851 40.7224
4.51105 12.8804 51.3192
6.87179 14.4688 53.897
5.11802 12.826 48.4151
6.30007 12.4227 46.4903
5.57018 13.4982 46.4012
5.16789 11.4387 43.5676
5.76755 12.2095 49.7576
6.5416 12.6662 43.8359
5.50445 11.1464 40.7361
5.59087 10.7112 46.9364
5.93789 11.7132 48.7719
6.54232 14.2585 48.2715
6.69659 12.3117 47.7254
6.00929 13.5518 49.6707
6.05579 12.0568 46.1487
6.05875 12.8844 53.3813
7.54708 13.6946 49.7262
6.57903 12.3981 47.2393
7.19899 11.4136 47.2593
6.63499 13.7104 53.2879
7.52672 13.5158 47.783
6.77307 12.1204 42.9463
6.98546 11.2732 48.5416
7.02171 14.2262 51.2108
7.39029 14.3619 55.9393
6.40739 12.0694 47.8644
7.02761 12.6306 51.2885
6.83411 14.2513 51.4561
6.97946 15.4638 47.7712
5.7795 12.7494 56.3104
7.41556 13.3328 50.953
6.08506 12.8882 46.204
6.23231 13.9801 57.3211
6.18265 14.604 40.3525
5.84228 11.0271 49.5039
5.11607 12.6277 50.7672
5.25907 14.8342 56.2083
6.58489 13.2441 53.7479
6.30519 13.206 51.8795
5.28995 13.2948 50.3213
6.04549 14.2723 50.4097
5.68137 13.3287 51.179
5.48966 12.696 46.4757
5.44297 11.8275 47.8656
5.9437 12.3183 43.8683
4.60919 12.453 44.3465
4.96496 13.1753 48.0643
5.65841 12.5629 60.5178
6.85344 13.0186 42.2701
5.1124 12.6715 53.6832
6.50086 13.8564 49.0778
5.63784 12.9471 51.5774
6.44601 13.1128 48.0795
5.37067 13.273 54.5771
7.14908 12.5196 50.3564
5.70428 14.7263 56.861
7.23076 14.4467 55.1023
5.79347 13.1831 50.3669
6.90716 13.3277 53.5639
6.18647 12.2312 48.6349
6.17233 13.8035 54.9105
5.93441 14.7313 49.9891
6.29252 13.7149 55.779
6.5754 14.3852 50.5245
6.65881 12.6665 49.1435
5.09771 11.4509 49.5824
6.58052 14.1688 57.779
5.39438 13.2089 49.9682
5.65568 13.5037 54.0738
5.92638 13.3868 49.0694
5.89682 13.0261 54.4392
5.74911 13.3534 49.2378
6.21745 13.6499 54.6794
5.8794 14.2104 50.5041
5.2209 14.1141 60.7402
5.53923 12.8027 48.0084
5.486 14.4082 55.055
5.44859 15.5289 60.2026
5.8748 13.3826 55.1585
4.76612 12.2603 48.2928
5.06225 14.1531 49.9046
4.95332 12.9575 56.684
5.72121 12.6132 39.7359
4.25965 14.6429 54.6416
5.5691 12.2205 49.3063
4.63981 12.2039 53.5839
5.93151 12.8138 49.8354
4.88847 12.5001 47.798
5.60546 12.1727 48.1422
4.81025 12.487 49.6843
5.7506 12.948 48.5024
4.71574 13.2423 58.5117
6.16984 14.2565 49.6915
5.17541 11.6822 45.6476
5.61041 13.5482 55.5084
5.6907 14.7357 55.129
6.74288 14.0589 51.0846
4.89778 12.3003 50.4145
6.68701 11.4353 49.1949
5.55998 15.4286 52.8953
5.58505 13.5744 58.794
5.70554 14.9499 55.1377
5.67127 10.5379 48.9613
5.17399 13.7607 54.9414
6.65605 13.7194 57.0564
5.046 14.4293 44.9368
5.32569 13.3082 54.4757
5.26927 11.7522 50.5723
4.74253 13.518 47.9665
5.18081 11.3583 42.5821
5.08451 14.3704 64.7233
5.39642 15.6899 54.5028
5.80277 13.2561 51.447
4.90041 13.9525 51.7534
4.87815 13.0725 60.3872
5.94433 16.0694 62.3629
6.09889 12.8073 49.3124
4.75229 12.9521 57.0207
5.48954 14.1181 51.1812
4.89232 12.4144 47.6944
4.74125 13.9896 51.674
5.16855 12.9093 51.87
4.76516 12.4897 55.0146
5.681 14.5093 44.1639
4.35202 12.983 57.5259
4.80036 11.7451 51.3979
4.91658 14.4102 51.3137
5.11938 13.7795 52.1435
5.32954 12.4427 47.6701
4.80434 11.9399 51.8578
4.80957 15.1754 58.2488
5.2002 12.9352 49.9398
5.26193 13.9562 53.8254
4.73414 13.0549 46.8328
4.72877 15.7125 59.4655
4.87359 11.4912 49.6974
5.19194 12.7939 45.2331
4.41424 11.1166 48.0754
5.69667 12.9028 50.7873
5.08081 12.927 52.668
6.38219 12.6671 51.5046
5.78252 13.9929 49.8634
6.12934 12.9658 52.1668
5.50783 10.6322 45.6488
5.64942 13.5753 54.7149
4.84589 12.4433 53.1071
6.31249 12.7156 48.3044
5.45865 14.5274 52.1071
5.15485 11.8708 54.4598
5.24407 14.5511 54.4542
5.89764 13.8792 54.9236
5.24272 13.2584 51.4834
5.50168 13.0988 48.3615
4.97308 12.7587 58.4097
5.62986 13.8397 50.9964
5.26443 14.1359 48.3047
4.82895 13.6517 55.5423
5.58775 13.7334 54.744
5.29462 12.1267 54.8264
6.08872 16.0247 60.3201
5.19526 13.7981 53.1499
5.16109 12.8793 48.0293
4.49673 12.5608 53.0351
4.92665 13.2938 44.6083
4.67578 13.3535 54.9164
5.31265 12.6079 52.0071
4.65405 12.0528 53.551
5.86249 14.6959 49.4456
4.57235 13.9281 60.9372
5.38025 15.3201 55.8575
5.43868 13.0146 54.0454
5.71409 12.9662 53.518
5.90971 12.9749 54.6616
5.06867 13.9023 55.3706
5.66639 15.8217 55.9762
6.00444 13.693 57.8642
5.79769 13.2227 59.6944
5.54953 12.503 45.6061
5.71582 12.8793 52.9518
5.33914 11.9443 46.2935
5.77759 12.9037 45.8762
5.4364 11.2017 55.7891
6.55137 14.4799 47.0985
4.46751 13.416 59.6484
7.00146 15.0122 57.8568
5.9 14.5449 51.3458
5.71216 12.5866 46.2241
4.7721 11.615 47.8991
5.50547 13.8414 62.7059
6.63613 13.2722 49.6421
5.92714 13.4576 46.5905
4.75612 12.013 53.3075
6.49553 13.4622 56.9627
5.738 15.6393 55.7742
5.77618 14.4868 59.1892
5.08289 13.7021 63.1529
6.31763 14.0868 56.1644
5.08094 15.7006 56.6096
5.85739 12.6681 54.7224
5.07462 14.6367 55.1843
5.67437 11.6151 52.9573
4.6008 11.8438 44.0774
4.96162 13.1045 49.2174
4.5217 14.6332 53.3594
4.91275 13.9171 59.2567
5.02439 14.3002 48.0068
4.67431 12.6409 57.3668
4.53061 13.1618 54.3294
4.88465 11.9574 52.1992
4.40145 12.6667 49.4597
4.7142 13.1274 48.3713
4.6756 13.4902 54.1655
5.24801 12.7426 53.8552
4.26865 12.8116 56.7328
5.99583 13.7466 49.0905
4.82228 12.1393 47.6829
4.89227 14.1553 58.324
4.76153 13.9292 57.255
6.20341 12.8127 55.5786
4.49053 13.599 44.4102
5.20284 13.026 52.5343
4.62806 12.5497 42.1518
4.92374 12.9223 67.0152
5.51547 13.9164 54.249
6.91 13.6901 52.8125
4.96149 13.713 57.9039
6.7349 12.3994 48.3232
4.76134 14.0368 51.7265
5.95286 0 0