# pn-170911/RbIIA-35-PTBB-1280-1959.psd
# Power spectrum* (dif=0,1,2) (really just |FT|^2)
# NOTE: only the first half! (symmetric)
# weeks: 1280-1959
# 1 clock-days, 0 excluded
# PSD: 1441
3216.41 4.33688 0.000665268
6.71524e+06 103.3 0.000872257
4.01447e+07 552.211 0.00927298
344394 2.41461 0.000760795
740997 75.0328 0.00850564
639946 37.4037 0.00246127
80193.4 0.682873 0.000547584
93011 3.90361 0.00239991
274872 50.6397 0.0112463
142604 16.6217 0.00430879
139242 17.4597 0.0110182
37064.8 0.0432857 0.000242181
23963.6 2.03491 0.00291836
59916.7 7.7452 0.00521678
3484.84 13.789 0.0142975
14757.8 5.20482 0.00831309
33566.2 7.13159 0.00641458
5641.8 5.26672 0.00880466
7503.29 1.42423 0.00181854
9071.53 0.806218 0.000660298
15130.7 1.72051 0.00548201
15207.1 2.54273 0.00391054
3254.77 3.75912 0.00748196
12572.2 4.62573 0.0156209
15217.1 4.7556 0.0162935
7723.05 0.149695 0.00050489
2742.34 2.8961 0.00778601
8496.34 2.13404 0.010547
3776.41 2.90859 0.0140258
10323.7 3.77187 0.0172014
5196.8 2.55272 0.00749635
3376.36 1.71873 0.0102371
6081.09 2.18386 0.0147752
4580.07 0.235018 0.00102373
4803.04 0.752358 0.00680195
2916.53 0.182842 0.000431089
3270.5 0.015461 0.000871312
1994.81 0.882377 0.00428167
3122.87 2.03571 0.0189501
815.322 4.32688 0.0294336
3105.23 3.61442 0.0214552
1593.31 1.12032 0.00736322
2714.78 1.42456 0.0166013
3008.2 2.1007 0.0139705
2543.2 4.0048 0.0313999
1393.61 1.50967 0.0158019
1507.73 0.60748 0.00749385
1951.68 0.284325 0.0013262
2455.68 0.481436 0.00569521
1315.09 4.47724 0.04493
1884.19 0.427438 0.00695516
4478.57 8.65855 0.110094
1586.84 0.054056 0.000494124
1789.88 0.517046 0.009847
1811.7 1.19247 0.0223288
1413.87 0.57626 0.00547349
884.563 1.01524 0.011358
933.017 1.02998 0.0174127
1576.74 1.88456 0.0262738
1747.18 0.921402 0.0194289
843.074 0.72105 0.00830973
385.912 3.68595 0.0606726
1516.27 0.571865 0.0120215
643.953 2.58453 0.0478555
1240.66 0.217921 0.00518676
553.29 3.68185 0.0715205
761.497 1.79641 0.0392923
1133.26 0.742143 0.0179502
1214.01 2.08524 0.049763
903.907 7.23033 0.171712
600.323 1.68577 0.0433019
973.631 3.95433 0.107979
1163.73 0.870171 0.0273643
593.43 0.776469 0.021124
767.442 1.90889 0.0585173
612.37 0.358304 0.0116335
1356.81 4.11174 0.129642
260.506 3.46485 0.0954198
912.943 0.367772 0.012665
945.41 1.45591 0.0541594
533.815 1.00355 0.0358539
465.364 1.04607 0.0374371
444.513 0.623779 0.0210899
398.613 0.834096 0.024812
263.73 2.73857 0.0983065
650.277 0.419933 0.00768796
715.849 1.12744 0.0308911
773.715 0.793942 0.0269291
324.892 2.527 0.0917609
955.743 2.71163 0.1011
674.339 0.693034 0.0328901
487.459 0.396751 0.0211519
486.114 0.130684 0.0102336
1025.35 3.87705 0.15581
557.49 0.854602 0.0307087
597.826 0.85585 0.0360381
945.038 4.13447 0.194619
559.009 0.37695 0.0262269
487.828 1.09329 0.0600646
273.412 0.970132 0.0408365
555.561 1.10604 0.0704082
162.029 3.38706 0.149588
543.826 0.389296 0.0166184
504.402 0.321635 0.0148807
663.585 1.81206 0.103086
437.823 0.234037 0.0138925
653.952 2.73414 0.177659
314.498 1.15954 0.0492459
344.157 0.25525 0.0162364
322.663 0.0241158 0.000782371
284.857 1.06597 0.0655737
212.392 0.816392 0.0371495
186.453 4.3422 0.219132
235.565 1.40231 0.0742673
241.033 2.154 0.129392
209.248 1.15735 0.073491
273.133 0.44757 0.0309174
593.779 2.94043 0.195952
195.128 0.841487 0.0450371
281.07 1.52965 0.106514
424.515 1.05151 0.0887299
185.473 2.57106 0.160368
487.591 1.80215 0.133882
244.28 0.117422 0.00796418
248.051 1.29627 0.0790376
314.676 0.175705 0.0251603
109.248 7.80743 0.534413
223.913 1.88109 0.142477
280.269 3.58536 0.29373
307.104 0.127814 0.010606
192.489 1.15673 0.0982114
396.259 1.51803 0.112856
323.472 3.91111 0.328532
288.935 1.18785 0.11415
240.177 2.41723 0.230551
408.527 4.47012 0.44838
324.025 0.797119 0.0743054
276.29 0.419993 0.0628399
134.816 1.2655 0.11285
266.497 0.277396 0.0240523
181.065 0.675022 0.0706089
117.198 1.9529 0.186531
394.876 4.88915 0.508611
118.987 3.1484 0.285277
338.606 1.55271 0.136919
430.308 3.96737 0.392343
320.045 2.16744 0.276875
241.979 0.42432 0.0540768
199.037 0.27921 0.0210855
191.877 0.0354723 0.00156644
288.291 1.15381 0.145143
285.515 1.53448 0.228006
98.47 1.21403 0.0813214
175.215 1.70459 0.173339
214.782 0.332882 0.0533795
147.764 0.167307 0.0096997
155.405 1.49198 0.189858
140.903 2.38542 0.229649
237.73 1.20931 0.179056
137.779 0.316867 0.0164773
143.611 2.54543 0.295372
70.7565 3.27011 0.38403
80.6189 3.09383 0.343244
174.347 0.036879 0.00226174
86.3674 6.51791 0.812292
267.105 2.69206 0.370656
139.773 0.65954 0.0558751
154.343 1.05879 0.139599
165.399 0.0880354 0.0267533
84.1689 4.38514 0.586178
219.638 1.93623 0.252789
77.4331 1.70314 0.205587
79.0605 1.92927 0.312013
264.03 4.02103 0.545122
130.978 0.337778 0.0382707
92.5131 1.34326 0.219714
258.344 3.00931 0.40339
165.219 0.609387 0.108247
176.663 1.41868 0.274613
178.521 0.740555 0.0931879
151.962 0.362841 0.0510257
179.05 1.13744 0.223262
167.876 0.820055 0.145496
89.2653 1.59373 0.20087
144.776 0.157704 0.0380295
154.904 1.37004 0.228608
99.0609 0.15391 0.00933276
78.4498 1.86328 0.267786
186.299 3.50923 0.648198
90.6008 0.642963 0.145271
121.707 0.325264 0.017718
143.907 1.57875 0.237744
93.003 1.33597 0.216153
92.6534 0.637746 0.0923634
56.8516 2.04577 0.349553
138.653 2.47263 0.44841
137.256 1.11175 0.180149
203.416 3.0219 0.659019
123.207 2.10429 0.312028
62.3696 3.10498 0.472181
88.7593 0.873986 0.161906
228.425 5.23705 1.1378
59.8836 3.91979 0.582009
35.256 8.92391 1.68768
73.4377 2.83899 0.790428
127.433 1.83197 0.214561
135.318 1.98046 0.414767
58.4351 1.9035 0.318833
76.9658 0.92843 0.173788
43.2605 2.98059 0.646456
106.418 1.29652 0.263091
160.746 3.06538 0.663131
115.554 0.368119 0.0616458
108.538 0.141933 0.0482262
81.2512 0.371825 0.0615445
29.6661 6.44788 1.4146
71.5646 0.864258 0.332883
140.461 0.737242 0.0755826
165.856 1.83075 0.290356
230.133 7.8408 1.91829
65.2997 0.776724 0.0850735
114.666 1.27948 0.272369
117.755 8.76942 2.05135
100.705 1.76515 0.673446
24.4378 5.88299 1.34296
65.2812 0.365512 0.108137
38.8224 2.84401 0.599781
54.0205 2.09977 0.591072
132.288 3.68136 0.987265
86.6519 0.00635284 0.0234045
79.0745 2.49256 0.497787
46.8934 2.49421 0.723573
111.126 0.508768 0.153607
119.126 0.878094 0.171273
84.3666 0.189838 0.0243462
85.8353 0.14383 0.0759014
53.8078 0.695875 0.203948
72.8389 0.511335 0.0990732
96.0512 0.940722 0.160055
71.6926 0.800811 0.269197
184.423 5.85756 1.4242
71.2113 0.541871 0.163893
150.164 3.76323 1.09303
99.8433 1.24433 0.405324
78.2904 0.238198 0.191341
58.5341 0.0751856 0.023474
82.244 5.45253 1.26082
30.2606 2.79984 0.653148
50.848 0.991008 0.310045
110.844 3.40271 0.982958
60.1134 0.280193 0.0643367
82.7916 1.58607 0.469083
62.7646 0.0843643 0.0333297
89.6975 0.659646 0.273311
47.6606 0.972442 0.23055
76.4536 0.0890289 0.0271031
102.388 1.80624 0.859834
7.98253 7.91223 2.03821
56.749 1.27095 0.349299
85.4585 1.3347 0.333896
45.0949 2.87324 0.912097
85.9496 1.89657 0.72909
66.1212 0.109297 0.00725456
57.5265 0.41968 0.187432
91.8603 5.20843 1.57288
59.7192 2.30082 1.06044
114.768 2.80943 1.07871
39.0363 0.723198 0.279541
59.7903 0.991315 0.166579
101.802 2.40238 1.03838
28.2068 1.28147 0.245855
28.6746 7.41816 2.12673
27.5263 4.27811 1.43235
20.8279 5.67627 2.55335
100.617 1.76369 0.548655
93.8001 1.09693 0.358476
44.8511 0.515629 0.32674
81.1482 3.86568 0.964526
114.638 3.07764 0.892047
78.98 4.38262 1.25598
45.9137 5.07679 1.95168
118.261 5.35842 2.04942
66.1039 0.525419 0.412187
46.921 0.11365 0.00455225
45.8721 0.175237 0.0557638
61.8742 0.29109 0.0682
34.9531 1.86828 0.701869
75.4502 2.65148 1.14724
97.5055 2.33661 0.821061
72.4126 1.03518 0.599411
20.9437 3.14498 1.08953
105.644 5.18317 1.67123
47.1906 5.6171 2.26264
58.4383 0.133108 0.0324966
67.963 1.85618 0.996866
16.1378 5.96148 2.43304
112.442 6.20175 2.22133
51.761 1.33854 0.86137
19.1979 3.06431 1.03701
33.3044 2.22486 1.5449
118.883 7.32697 2.31956
70.7348 1.42517 0.803066
45.2851 0.757064 0.181071
83.9167 2.69318 1.26209
40.2995 2.35785 1.05448
62.9198 0.868891 0.650921
22.1833 1.29875 0.252103
17.1164 3.65035 1.53527
60.8882 0.475164 0.153891
61.2875 2.45354 1.46475
29.4194 1.26726 0.247225
18.2287 4.07135 2.06976
94.9253 4.88365 2.35574
44.2889 1.88814 0.42146
22.7295 2.91761 1.10695
48.8595 2.41748 1.10203
43.4587 0.452524 0.328645
17.324 4.53823 2.87343
105.364 4.36559 1.30234
55.1563 0.741114 0.310786
43.0081 0.117015 0.10609
52.7707 2.67529 1.18439
37.256 0.470586 0.397126
65.823 1.55532 1.16436
34.1651 6.14402 2.19009
88.3638 9.5474 4.75065
34.1131 0.382287 0.405897
30.0816 1.44938 1.32237
91.6589 4.60816 2.24758
20.4869 2.71492 1.08024
89.1663 6.81806 2.93207
26.6283 1.11972 0.369934
38.0189 0.594451 0.327937
38.4657 1.16231 0.762646
8.54654 9.42027 5.02939
77.1214 4.62876 1.77672
45.3308 0.00363577 0.0306734
65.1234 1.31344 0.622996
55.052 4.13181 1.54484
37.9844 0.556559 0.209023
100.401 13.2932 7.11094
12.1419 7.22705 3.86104
55.4105 1.38197 1.03264
47.0318 0.343841 0.287219
36.965 5.50304 3.80885
20.3312 2.59311 1.10041
29.5236 2.24369 2.04954
45.6963 0.141027 0.0609954
47.0305 0.163384 0.276645
23.423 4.67081 3.47458
104.473 6.44627 2.05555
56.321 1.30952 0.430223
57.0611 1.18125 0.428161
85.7184 8.89978 6.25005
93.4239 17.5422 8.88924
18.4093 0.981963 0.294517
36.5856 0.433336 0.340967
52.0618 2.58746 1.75462
24.8229 1.87879 0.943878
78.6106 5.67393 3.16837
39.6961 4.46622 3.47685
59.6429 6.63505 2.9751
26.5318 3.26564 1.95089
28.3609 0.220362 0.195162
56.016 2.83952 2.10441
23.1206 3.21797 1.29383
36.2237 1.95657 1.45673
27.0558 0.392002 0.349171
53.9444 1.50931 0.833272
31.0047 0.226691 0.170043
27.9687 0.132241 0.0941228
11.1259 4.87922 3.51316
49.1244 0.314998 0.211354
71.9039 3.97823 1.82303
30.5312 0.108571 0.213467
72.7446 4.79598 2.32291
61.0069 4.3363 3.37222
30.1968 1.1871 0.894206
20.5214 2.00477 1.36562
43.0033 0.707493 0.683096
37.026 0.758424 0.465519
42.7304 3.19871 2.40471
32.7235 3.90383 5.11622
44.0538 5.75619 1.81613
20.2028 1.8323 0.514195
20.593 2.38027 1.19235
32.5029 6.59035 5.46245
87.5719 9.59661 5.4769
22.4886 2.63098 2.20456
70.9823 12.0613 8.17051
32.0005 0.201115 0.760586
25.7144 2.57171 0.906564
79.1336 10.4137 7.44845
25.0455 9.35327 5.51982
19.5563 1.89725 1.94069
44.8073 1.80906 1.34202
18.256 1.14015 0.733514
30.7097 0.322961 0.0216376
45.7463 3.76077 2.32424
34.9717 1.79104 1.76789
27.1902 3.0589 3.45248
11.4364 2.84197 0.997555
27.3737 0.0717526 0.119973
15.9184 2.98895 1.97199
27.1029 0.67225 0.662695
51.5894 8.29113 6.73303
43.0798 4.63857 4.06054
12.1652 4.47145 2.14846
24.3591 1.46665 2.22328
11.6107 4.44776 1.68209
17.4972 1.01958 0.420288
15.6942 6.53681 4.54516
28.049 0.206822 0.312095
5.60794 9.30194 8.48035
30.7184 0.60208 2.78059
83.6898 11.0027 4.24924
64.1496 14.0991 12.1023
6.49502 4.58355 3.01905
28.4701 0.579805 1.07141
13.3239 2.01239 1.94246
16.8555 4.86915 3.55882
18.581 3.26084 5.15989
49.2923 3.82213 2.86878
86.4991 12.4059 7.43193
28.0786 2.18759 1.86512
21.506 0.991236 0.878126
49.0234 2.75715 1.8089
15.8633 1.25088 1.2654
33.8916 0.0233645 0.189356
50.4626 6.13462 5.07319
75.8491 11.8565 7.29291
38.6377 2.78643 2.50762
33.9974 2.56378 3.28874
38.3004 3.09674 3.57121
11.5819 1.38791 1.5519
30.0029 6.57298 3.29608
20.9954 7.60105 9.08223
67.0557 9.81874 5.46028
42.1924 4.79246 6.47437
11.9945 6.626 3.69483
46.4359 7.1592 5.88496
43.4541 4.13557 5.21802
10.0985 2.11763 1.01923
19.4954 0.981058 2.25952
75.8419 11.0529 6.64814
46.7044 7.14587 8.09433
32.4782 3.10466 4.98018
11.8891 0.298144 0.0737135
16.1017 0.460382 1.43822
15.2582 15.0764 13.6049
87.6955 17.7813 13.1502
30.0822 3.84487 7.68348
11.0997 3.49864 0.854322
24.1851 0.219078 1.14213
38.7355 7.69953 6.43781
10.045 8.48256 5.7869
26.4935 0.376309 0.756018
23.9497 4.84707 5.05723
6.69042 3.3111 1.86401
30.0806 0.911331 1.49833
13.8659 6.03665 4.07439
16.3005 0.811388 0.745159
32.3309 3.28095 3.29883
30.4676 2.12471 3.88491
11.0141 3.62775 3.8747
9.59637 3.25028 1.49074
18.9873 0.348286 0.135567
15.3416 3.28848 1.9719
13.3305 17.8508 21.1776
20.5602 3.64749 2.24921
31.0556 4.51628 3.78343
31.6475 6.41871 7.58706
30.8384 3.55582 1.96007
16.9572 0.246344 0.229875
19.6571 3.91135 6.53497
32.4363 15.6811 12.2476
12.969 1.13217 2.31394
23.1863 4.80814 2.88057
5.86752 5.33119 4.18041
13.1658 2.77943 3.91835
21.8253 0.481749 2.05082
45.236 3.26988 1.77633
27.2678 2.13616 1.63067
34.305 5.02281 7.15836
10.6955 1.93582 5.06592
15.845 19.5391 16.0489
44.3882 7.47532 9.76693
24.5251 5.91704 3.28966
26.4728 1.53909 2.31796
10.6981 1.62815 1.48535
17.3454 10.7712 10.7898
25.3357 0.244961 1.18442
16.9866 3.10206 2.69548
28.4651 1.37443 2.38958
22.3507 3.64363 2.23423
48.4327 12.8789 15.9025
0.66123 14.6524 16.2227
57.3643 10.2764 11.0259
17.2075 3.53348 2.1998
25.8696 1.34174 1.54915
14.9955 0.666126 1.14711
28.8597 1.58135 2.05323
20.805 5.88245 11.1591
11.6657 3.22741 0.29469
7.06315 6.08541 3.93607
9.71776 3.63151 4.6791
20.2728 1.47421 2.84114
32.4719 0.930131 0.244929
24.4916 0.450432 0.337414
28.894 2.20028 3.38974
23.853 4.24626 3.55447
25.692 1.17333 1.43036
14.3685 1.12476 1.51701
28.8018 5.01956 6.36755
25.7868 1.15304 2.76912
26.6295 15.0569 13.7893
24.9767 2.03903 2.7126
42.9471 11.5429 15.4922
19.9854 22.9252 20.4224
6.76555 24.261 39.1314
49.4417 12.0913 14.1013
0.600975 27.367 26.8884
37.9053 4.54626 7.58463
19.1939 2.99367 1.89895
8.22512 3.17417 2.75056
8.44113 3.51589 5.45368
26.3402 0.866953 0.685239
15.8376 3.02898 3.35523
14.4417 6.59311 13.4435
2.41596 15.8533 13.6597
4.95037 17.4289 35.776
42.2427 0.598131 5.89304
67.3016 19.7468 12.9001
9.69171 1.21553 3.02555
28.2624 5.74154 3.97284
33.4721 4.76459 7.04981
14.2915 0.21732 5.39138
34.0653 25.528 20.5714
29.996 2.53341 3.54125
6.68196 2.48465 4.22303
38.4803 25.8123 23.6153
16.3988 3.88843 9.45904
9.90385 8.05811 7.53948
10.4604 19.8376 32.3218
38.2431 4.31654 5.92634
47.7917 8.99921 6.24725
23.4056 1.93302 5.70773
39.611 10.6182 6.89229
27.9016 8.71768 14.2887
8.40014 1.03505 2.52585
13.195 0.68519 1.92125
27.7627 7.83954 6.94789
12.593 0.447368 0.398757
12.2289 1.10082 0.978412
6.66858 7.29325 15.1651
37.4096 7.2104 9.50304
28.5743 0.750965 2.17132
23.5958 11.8006 16.5103
47.4129 5.72303 4.02159
46.902 21.8053 29.3421
55.821 17.8027 10.3262
45.7711 15.9994 20.0277
18.0814 5.94379 16.5357
17.2957 26.4197 34.4611
61.9912 20.3772 21.865
11.3833 0.716877 3.02045
22.5585 2.17401 4.2052
18.8183 3.73681 14.8077
19.3095 11.4103 8.43737
5.82526 5.85733 11.1784
31.9327 9.84896 6.12583
21.2184 1.1844 0.788788
23.102 1.89428 3.81995
20.8037 3.65901 1.56706
45.3364 17.9997 28.5218
6.36722 0.25031 2.4692
17.2752 23.117 22.1185
23.3833 1.92018 2.30161
21.6243 5.82167 10.1024
9.87376 0.369392 1.38584
13.7805 4.86218 11.6003
9.01537 5.50884 7.41517
10.2685 6.6124 2.2903
7.77232 19.7359 26.6816
15.1103 1.96466 5.86524
33.6783 16.6873 23.457
37.5229 9.96765 18.4396
20.674 3.45652 6.95534
5.01039 4.49326 4.19246
15.6354 9.87607 14.7967
12.8136 1.14569 6.54907
41.5096 9.00915 10.9068
23.2076 3.82113 5.95821
15.5114 1.32674 7.29914
22.8298 6.89614 14.7216
23.5096 45.1781 61.9383
10.5311 4.54627 0.602231
0.475573 17.7898 25.0169
33.7156 7.85509 14.5334
6.35542 10.3274 14.2642
35.4796 5.64567 5.19689
12.5553 3.67967 12.0867
30.4805 29.8366 41.3091
20.8199 1.61515 2.35757
11.6352 3.41574 18.7698
20.8798 19.5502 12.2367
3.60738 9.29876 12.5307
24.2216 3.93841 5.6012
8.88323 0.821752 1.1992
10.3132 1.55836 3.67664
18.7528 8.31702 12.3156
26.662 4.18614 8.9527
15.1019 0.54227 0.701574
13.7001 5.38767 5.89316
16.1866 0.111864 0.0464131
14.3224 1.11813 2.76283
36.2787 13.3981 25.791
3.9053 2.17825 0.148602
13.0694 7.3064 12.0322
12.879 3.67586 4.49502
10.2623 0.0804956 0.91115
12.8309 8.82158 10.3397
4.78723 5.97466 13.9392
15.5502 7.83528 6.97004
12.719 2.54772 9.47555
32.7695 14.2938 19.8008
6.37276 0.813029 1.5239
6.03089 3.19577 5.70731
21.8208 12.1765 16.8477
12.1875 0.722086 0.536161
10.7578 2.11448 6.47089
30.1812 6.00692 9.89148
16.5794 8.0216 22.7551
1.09515 25.9896 23.7435
9.02957 4.25864 7.81739
6.00407 15.9471 42.5188
43.2664 5.65231 4.75578
21.8449 6.81002 6.80237
18.75 1.73468 6.06471
26.1302 6.73334 10.1336
35.4841 19.2543 31.2369
13.4373 3.06126 2.47298
6.19403 4.59225 5.93011
16.6194 3.70035 12.6088
18.9492 2.56037 0.226436
26.3084 13.799 21.0212
20.238 5.19853 17.4142
1.10857 13.4873 14.6518
16.3769 6.05754 12.6125
16.5431 3.65872 2.90751
7.15405 1.55692 2.09911
10.6936 7.52392 17.1422
18.5727 1.40537 0.761526
9.9598 6.53173 24.5632
51.9759 18.7977 18.6498
10.8231 4.1486 7.8127
4.26839 4.88068 8.79986
18.316 5.65437 19.7074
21.5489 7.16963 13.0091
45.0511 16.9403 22.5641
24.2476 17.2764 26.9231
8.88315 4.15384 6.22881
15.9105 1.82418 0.906489
18.2781 5.18861 18.4103
1.93854 27.7634 39.0719
13.3049 8.33358 26.415
26.9493 0.506445 8.85324
40.5501 8.0497 3.70412
19.8422 0.516772 2.61431
28.4965 11.8614 20.9078
39.0363 7.04225 3.61709
51.2516 26.101 19.953
32.5901 21.0504 36.6076
10.7709 2.63511 10.2644
6.26038 5.05794 19.0055
45.6375 26.0036 33.0869
10.8507 2.91089 17.1348
11.0255 12.7775 12.5025
18.126 2.61545 4.79928
11.3941 1.90898 16.016
22.8081 27.7342 25.5706
30.9911 25.9151 52.3857
14.664 0.191925 5.18041
39.2471 22.5774 30.5196
16.7087 8.97833 26.8175
6.59075 2.11681 8.66112
6.70528 4.11332 10.2988
13.2231 2.34047 8.90758
12.5178 13.4317 38.4569
4.47429 4.98706 2.36807
10.9958 13.2967 32.6289
21.211 3.25069 17.1424
22.9115 16.6873 25.0985
4.67491 8.85391 26.8032
32.7829 22.5045 23.1036
14.134 4.31563 14.9224
4.55247 4.21848 10.4057
10.8254 2.46024 4.26226
37.8643 37.3282 106.941
8.26494 31.0388 41.0684
19.8041 17.8137 26.7545
14.0021 4.3971 9.38992
15.1451 8.48912 24.8308
1.50502 20.5381 40.5657
23.4716 7.20433 31.2852
2.02307 30.648 45.097
27.4631 3.43587 4.99019
16.0462 22.1067 30.4773
21.7654 2.39331 1.61543
22.0376 7.85642 16.9641
14.7721 6.79817 9.4328
12.5948 13.0258 27.9422
7.41023 0.257747 3.03768
12.5901 9.53311 35.6192
11.7204 3.26019 16.4915
6.91128 10.9317 22.732
3.9716 1.79839 0.259162
15.9658 9.1817 54.1671
4.40976 41.4958 52.5101
40.3734 29.0241 75.5167
0.0801409 5.35551 8.45586
1.30538 10.2397 2.52261
2.5793 3.68687 6.43509
3.22822 17.0713 10.4611
9.36757 33.5454 67.1076
29.3557 8.05771 19.2304
5.0432 27.6616 58.6977
6.11613 11.3019 19.8593
10.8445 2.53066 26.1079
41.7505 38.0889 58.2947
1.31258 11.1008 29.0453
30.8071 18.3794 31.6375
0.22966 18.1401 30.4238
13.7927 0.52179 7.68121
25.033 5.93139 7.44073
11.197 11.216 55.8023
31.3767 21.1654 26.4847
3.97155 1.51968 2.38946
12.3002 19.4959 33.0506
1.64648 6.27485 15.9287
3.83743 2.18996 3.79364
3.41524 20.0693 27.9421
13.993 0.0874168 1.41963
5.99474 19.4649 46.5478
30.0352 11.0179 28.345
3.4532 2.59892 1.15199
11.2843 10.5301 26.3786
0.360328 22.9247 21.0334
7.8147 6.6963 18.9304
10.318 12.5769 20.666
12.0687 0.261999 5.24235
3.5865 32.2517 58.1032
18.215 0.577651 3.02707
4.73119 23.2015 35.332
9.8774 7.44486 35.3037
10.6658 19.5238 61.8358
45.7666 20.1693 26.4925
3.94972 28.2417 61.0512
20.9621 7.63021 15.4434
13.8205 2.55384 2.16231
0.0131234 56.7207 210.336
91.9497 51.8918 31.7809
19.5255 11.4343 30.7861
1.60426 9.54345 20.8195
18.8019 1.1357 12.3276
43.6311 32.4373 57.6392
1.68614 3.62993 12.4166
23.9855 15.5308 30.8993
5.25599 2.70542 2.08292
10.9119 1.34132 10.1537
21.7906 19.2681 40.1451
9.16694 4.77364 7.25228
4.09618 2.80605 9.8654
13.5272 8.67659 16.009
34.1164 29.7868 81.1148
2.14447 18.6481 26.0038
17.0941 4.50165 4.57466
4.17729 13.4708 21.1413
18.6878 13.7454 42.6112
8.47034 4.7619 5.31189
8.05065 12.0991 24.2626
13.7572 15.0809 80.63
33.6722 14.5276 9.75743
3.70954 4.29963 25.4214
19.341 20.6984 57.2163
57.6473 44.1231 49.3393
12.44 8.98418 31.3964
12.0524 11.9111 59.2684
0.510249 9.27492 0.873719
2.19956 13.6665 31.1899
9.28672 2.36253 32.4489
35.0754 50.3795 82.5736
16.7119 6.05549 19.7146
4.10408 28.0745 56.5403
24.1582 3.94102 7.24798
21.8571 8.64027 14.4073
8.12465 1.3659 7.99135
18.6174 6.49443 17.5824
14.8832 9.48355 42.7228
1.54049 11.055 7.95785
3.1307 8.3736 37.8636
24.0495 31.2901 48.6651
10.4439 1.11784 8.75318
16.8781 5.92836 24.7455
47.1754 52.0724 106.07
5.74691 0.273245 7.09446
25.6044 23.6467 85.4935
11.8874 9.70417 19.7742
2.23602 12.7233 16.977
19.6612 9.20525 28.6881
1.8244 3.61991 9.84764
17.065 12.6979 45.9172
0.400232 4.39637 12.2879
4.25948 14.4843 28.4926
7.32241 12.0294 9.89296
10.5305 3.58769 3.48637
4.43225 13.5777 31.2735
10.1496 1.53363 15.7324
16.4523 1.75273 1.89433
12.8571 5.15061 22.3039
1.60242 3.16515 3.94382
15.178 43.3949 110.365
10.6442 0.357351 10.1027
4.20527 6.16903 15.9087
16.9275 9.10907 21.7002
1.78791 21.8097 47.6094
17.1572 8.05752 23.7596
16.367 8.31848 6.73659
6.92068 7.5606 16.0873
7.11199 14.1865 76.4861
28.5626 8.39274 7.31225
6.41361 0.0940781 3.23085
6.3387 0.857267 3.69719
8.59515 4.92305 30.5048
10.3972 4.663 28.3165
31.0186 16.758 38.719
16.8565 6.12984 40.6432
17.6548 13.5429 16.944
2.48183 3.44662 17.3766
17.2125 2.78142 6.68299
16.569 11.837 68.2043
8.90033 34.7097 28.627
4.28409 13.387 72.285
42.8594 35.2225 64.6172
19.8822 12.9916 38.6625
1.51761 8.11264 89.9319
57.4265 85.5303 122.731
12.629 24.4471 144.66
11.9244 29.0875 25.3453
4.95234 2.40471 64.2105
10.6844 55.1333 55.4957
15.8143 14.2634 87.8782
4.25878 54.9857 70.3765
9.23881 14.2716 48.452
25.1795 7.55657 15.4867
1.75452 9.60581 26.1743
9.775 1.93848 9.30961
14.9966 0.850761 10.8615
19.6403 12.8452 34.2799
2.76239 9.77282 9.31482
18.2929 17.5419 99.5576
2.19363 24.3692 35.4949
16.079 45.1067 51.7638
14.3043 12.2741 44.2139
2.36421 7.90266 1.97031
1.80594 26.3647 84.5902
21.8043 9.0549 9.18185
13.3655 1.73588 12.5872
30.0055 56.2086 98.9489
13.0936 6.88414 41.4347
5.77968 1.20925 11.6491
1.45651 26.7972 55.2297
13.2973 0.0323834 0.822767
5.20741 6.22489 29.3775
20.1077 7.91839 36.2364
2.75899 10.7272 12.329
8.2327 5.42827 24.7849
21.7824 5.65628 4.89515
7.07267 7.28177 22.8194
10.2971 0.494768 0.758443
7.17042 0.635705 11.1429
7.7841 0.428527 9.46396
12.5482 22.0262 29.3393
8.24226 0.26368 8.73505
5.78833 29.1426 58.5578
19.3855 15.0908 88.2792
6.66714 38.6399 74.7922
21.3417 46.21 139.331
18.3107 2.12762 9.80535
9.53553 26.6065 67.3364
27.1682 9.2835 10.5644
6.0014 2.8741 29.6103
24.1627 16.9113 35.0988
1.133 5.1385 3.65815
9.85571 15.4832 26.41
4.53906 11.2879 59.0073
14.9546 0.392883 18.7856
21.7377 8.45885 18.4674
8.10186 15.3295 19.4477
4.9788 2.14518 3.91777
7.31775 17.8554 125.76
52.0633 57.5656 101.347
2.57779 20.2607 36.5712
0.5244 35.1193 178.943
48.6771 34.0964 53.5597
4.24129 16.0306 16.2714
13.8135 4.25249 4.04223
7.13952 0.914695 0.273155
11.1501 15.4541 56.2846
1.13762 5.00203 3.34377
2.11471 6.80453 4.51867
3.68901 26.0261 121.843
27.3142 7.92468 0.57807
11.7252 5.24541 4.56327
11.1094 6.11686 30.9936
10.814 10.6479 42.6493
1.1612 63.9058 157.015
21.7733 2.12709 96.8982
45.2416 43.6454 44.7933
17.3525 10.4452 35.3204
12.0046 26.3299 90.802
4.04586 17.0392 69.2201
30.3636 36.761 58.3856
6.80336 6.66665 34.8011
20.8987 12.4358 11.2861
13.6055 3.41197 3.36253
13.9888 17.3357 57.6389
1.11175 27.1091 64.8775
18.0701 9.95028 62.5287
3.14987 59.3429 141.516
15.1069 4.13867 47.0306
21.1188 8.10952 8.10537
16.6822 8.78875 25.062
1.26334 17.7422 53.8172
17.7453 1.35449 37.7672
33.1385 26.9233 53.2485
0.443247 19.9616 123.728
46.1263 40.2911 75.7981
9.16721 56.6011 151.451
26.0437 6.01036 14.8025
12.7872 23.0936 61.4495
22.0508 8.87044 8.13092
19.4233 39.9367 143.564
13.9922 4.82119 32.9389
14.7389 35.083 44.7681
4.35343 0.405599 1.7762
7.35345 17.4223 62.6422
2.76122 12.309 19.3017
11.7147 34.329 155.769
31.3699 23.9519 51.7138
0.0224654 26.9415 61.8069
16.5916 3.68638 19.4623
14.2602 0.0290384 16.499
17.9278 3.76669 52.7834
42.6212 49.5828 65.4459
3.91927 0.51856 0.209836
10.5451 5.52982 21.927
27.1768 44.6711 139.816
2.32679 11.9543 26.693
7.20821 3.81932 4.51342
10.3767 6.62632 41.089
3.71719 7.29086 8.70021
15.0499 10.1896 25.0309
4.57927 2.41999 32.6668
2.61232 2.71191 1.40322
3.16855 1.98661 21.671
17.6151 36.7573 54.2728
3.89235 33.8039 238.618
24.9998 20.3579 49.649
39.0279 57.7366 99.834
1.15354 0.788356 17.9594
2.2666 3.92436 83.0412
15.9161 35.4279 40.7642
0.592539 20.8951 10.0056
4.24654 40.5442 140.86
11.9578 2.58555 74.5623
23.0975 27.8055 29.4959
10.1739 1.02472 15.4797
18.3294 24.8773 78.3114
0.0884038 14.9982 89.4285
19.0764 28.1932 41.1544
12.2466 9.20226 50.4009
5.2801 18.0641 53.8874
10.5143 25.5883 108.689
17.5168 33.7626 77.221
3.0825 6.0156 5.09031
0.0763164 28.8675 53.336
10.6203 12.9663 32.8202
8.68421 9.83332 106.962
38.8685 24.7631 23.7592
6.32689 2.29243 6.07592
17.0512 54.1493 133.889
10.7266 4.46863 75.9033
6.2528 11.0801 10.9548
11.902 3.76361 6.70955
6.79171 4.08224 25.2259
5.46339 9.54548 34.4269
18.7495 21.4848 63.645
0.462661 20.5143 75.1299
13.5854 3.50506 41.6197
4.53967 1.34323 29.6706
2.68751 13.4421 7.47875
4.0791 4.70892 105.653
9.26181 74.4616 50.9494
2.98203 33.8327 98.337
14.8007 5.00767 42.2661
13.8811 0.617834 12.9254
8.31868 15.3039 81.1129
20.2487 23.5919 162.24
32.5992 20.1768 62.1594
34.9367 26.6038 11.872
8.74663 3.89697 3.05039
10.0258 11.2976 42.3043
0.547332 16.3192 73.7947
30.4931 29.987 73.1433
0.678741 10.3805 25.4417
15.7631 5.93821 27.4422
4.83552 7.70885 10.4821
9.46542 0.631895 17.9711
17.4732 13.5783 41.3933
0.524153 7.55919 44.722
15.7337 29.3339 22.5227
5.16951 18.4575 138.536
47.4091 74.6777 195.909
2.38321 29.9261 91.5614
24.2189 5.41558 26.81
21.2629 14.6635 36.2566
15.3774 30.4456 114.822
1.833 29.5098 97.419
30.9506 24.9592 54.2705
1.9331 17.3724 87.2878
33.3528 36.2039 84.7425
7.99704 12.192 20.8674
3.40478 16.9147 26.8299
6.15756 7.06491 56.2749
13.3357 9.25915 27.9028
14.03 29.0275 110.718
17.2293 12.0609 21.8877
25.2048 48.8201 141.869
2.89291 13.6487 74.0796
21.0219 55.4418 146.329
3.40674 0.612596 36.5894
8.03084 7.24942 44.0528
0.900368 2.88128 58.7255
3.74604 6.41312 3.45914
8.26728 5.63883 3.74489
13.3401 39.3905 260.605
3.35823 5.41859 77.7017
5.60197 77.4264 88.6277
12.5783 0.180323 0.569437
4.18005 5.92013 51.5713
6.90949 20.1733 23.9101
8.33235 0.567359 10.3525
2.72916 0.330933 15.3244
0.825285 12.2128 5.16556
4.36748 8.05331 72.4196
16.2084 49.2075 85.4521
12.7756 9.00522 119.187
19.2812 38.0581 94.3351
24.8442 22.5014 36.742
5.37189 8.88194 73.7666
0.19127 2.17005 29.2362
1.1423 14.0017 8.9735
0.507387 24.8159 39.1368
9.63327 2.15393 15.109
7.13358 3.14821 59.3185
23.3196 33.0888 58.3803
1.93882 4.08551 95.9239
6.36646 57.7468 115.664
19.1313 8.97557 53.104
1.07018 45.5313 131.332
18.5949 34.1625 28.1868
5.02758 47.6214 324.963
55.7834 46.6826 109.585
9.30985 16.4899 16.3442
14.5484 17.0681 100.091
1.27413 32.9095 59.9374
14.5829 9.3433 42.1667
17.753 10.8389 47.6637
4.07191 1.79395 12.7424
3.68673 49.599 239.113
40.8248 47.9195 91.7972
13.5635 2.66161 60.5591
18.9906 18.007 69.3018
6.84989 29.7941 17.2313
10.7368 23.1402 91.9306
2.13911 3.54443 15.1086
4.17556 0.702246 11.1078
1.39876 12.1329 8.86154
5.37933 5.05317 0.809622
1.87196 45.9393 261.164
43.2957 18.0977 23.4674
14.4916 3.83162 13.3718
21.2402 34.1091 94.6059
0.14135 7.18795 24.9026
8.82807 1.49919 67.0558
11.8669 49.1045 82.5966
12.1058 10.6337 142.756
14.9489 50.0069 143.791
6.28995 21.9929 1.29469
1.66138 51.0512 264.19
46.222 37.2212 88.6927
7.37096 29.1376 87.1983
10.0581 9.61779 34.6345
0.152834 35.1864 80.2488
15.5485 8.03171 56.9878
16.3433 21.6392 94.5373
10.8192 24.8656 64.7381
17.6523 7.63911 78.9143
23.9261 19.4758 53.8546
16.7784 52.3465 208.095
7.4895 24.2199 101.049
24.2249 17.8622 14.4009
16.8454 21.526 35.4241
2.37577 17.8975 84.2836
2.45366 11.3364 60.6629
10.6607 6.73082 9.13945
8.24566 6.73653 0.946526
2.31431 25.3393 126.674
26.7578 18.1132 31.2691
17.6929 59.793 341.465
32.0612 7.02111 73.9801
21.643 35.2159 8.0915
7.04073 3.0932 1.89264
7.95328 9.36933 4.11802
10.103 22.8652 66.8097
20.6939 33.9335 157.071
7.90724 10.3171 2.83615
3.03439 17.4769 122.233
27.9877 4.09756 31.2623
25.252 29.4668 19.5794
5.57156 9.48492 22.6549
11.1212 22.6527 176.988
12.9327 32.1994 30.0796
3.21873 2.93887 20.7971
14.78 6.55719 27.5716
15.6934 45.2024 150.066
11.1863 28.9511 121.757
3.06108 7.02528 4.0344
9.84672 11.721 38.4569
1.71293 5.03529 122.236
2.03416 36.6406 57.832
16.9575 9.23592 37.8532
0.890491 0.318809 49.8771
2.07614 30.1924 46.6257
7.2568 2.0886 1.10903
2.925 6.98103 20.5283
4.66442 5.32249 1.54157
3.73637 13.1274 50.3043
8.16833 11.2825 44.9349
13.607 3.57626 26.4593
14.141 1.17032 4.35847
7.57089 2.96108 7.58345
11.1463 18.0366 81.2074
5.0073 15.3659 16.7889
7.8367 7.13732 55.9626
13.3969 19.3315 89.1526
16.3641 12.492 174.19
38.6724 18.2748 10.3988
16.0988 9.18157 15.7029
15.8327 19.7952 5.53188
8.56683 8.93577 2.58746
8.77187 22.3293 124.152
1.39367 25.6327 60.0025
16.0639 8.50246 28.0937
4.58922 13.2551 40.377
18.6607 25.3045 55.1506
6.83668 10.1938 85.3987
1.25372 5.63903 10.1053
9.44176 8.6587 47.224
9.53448 24.8725 64.2202
5.63271 2.80666 83.5967
1.57784 20.4248 42.6677
12.2585 1.00863 29.9379
15.9434 15.2077 11.1307
4.08945 1.00183 2.20791
4.48857 0.132866 2.12054
9.30008 10.2635 53.4396
0.2689 4.37739 14.3241
5.95355 11.8725 20.6188
11.7458 3.95915 1.22178
5.2043 9.32667 24.6109
12.6945 19.3249 120.774
21.0707 41.6074 181.337
2.18148 8.85217 2.77021
7.67801 4.84802 96.6626
8.37921 35.1151 56.3483
20.8506 67.5051 343.96
5.63469 20.0717 144.034
13.4529 60.036 242.891
5.6589 59.0919 55.5932
6.52972 18.0278 136.207
23.5731 13.4228 25.4138
5.15679 23.0533 92.5725
0.516033 73.3826 366.283
34.0348 75.6488 82.0027
7.84475 6.01034 45.6647
14.4801 11.0469 46.2261
2.34676 7.10303 23.8949
7.27586 72.7435 400.049
39.4164 92.6187 229.877
22.1999 18.3777 31.3323
0.398805 21.9569 47.2023
9.95037 7.38125 51.2603
16.9511 2.66405 0.253706
5.7214 0.421596 8.61854
1.66314 12.8549 74.8221
14.8957 25.0383 87.8248
13.9138 24.8918 149.271
5.10692 70.745 162.725
23.6564 33.5725 111.525
17.2505 1.80145 38.1405
11.1759 26.0583 524.15
78.8997 95.3421 110.137
14.5764 15.9622 7.40311
15.3772 36.6887 117.011
17.0008 39.4667 62.3703
4.18626 0.132293 28.4419
18.3001 51.7973 157.018
0.208439 6.11632 55.9365
6.50729 18.308 65.7031
3.54629 5.92639 73.2084
25.1019 73.7836 307.773
3.58803 18.4064 11.5897
5.3703 5.22008 208.442
5.77514 76.3973 62.6812
12.0305 13.6903 92.7909
17.1696 3.50288 13.8065
6.37165 9.38448 5.36894
5.83275 7.03655 91.8057
1.40537 20.6947 17.1098
7.14677 6.11076 17.0413
3.54829 6.42875 25.6798
8.42088 25.5233 108.771
16.3866 12.8933 20.025
4.3725 3.18833 22.0094
4.68891 12.6543 72.5665
3.37287 66.9996 180.547
25.2858 4.99492 42.5731
14.6357 0.979963 6.01981
8.88145 7.53311 35.313
6.53815 4.48601 4.37185
5.87193 15.1047 170.487
32.2106 21.5178 34.0804
4.7431 10.8479 15.2473
11.9562 10.1987 11.0623
3.72739 0.735223 23.2869
2.53691 36.4018 120.592
12.7702 4.06806 3.88236
6.34282 2.61147 10.7419
6.60168 9.18225 15.2699
5.3103 9.67055 46.5829
13.5259 2.18462 54.0607
4.26386 56.2508 233.168
32.9464 7.8712 237.51
41.6381 87.4114 289.304
24.0272 12.9533 33.1307
14.6473 30.9281 114.848
26.0791 33.2435 202.935
23.4309 63.4593 64.7212
2.9893 4.68365 22.8438
11.7376 20.1 147.593
11.0511 4.73648 13.7325
6.91647 3.45028 39.2676
13.0009 1.62664 176.24
35.0674 43.7709 1.75728
9.01717 19.1857 43.4528
1.41456 7.02837 21.0217
13.9943 22.3239 63.1587
1.44604 11.6678 68.7227
19.2399 9.49222 110.695
16.3053 50.3329 13.6821
3.13946 43.0721 172.411
12.7901 12.3303 75.7482
18.3386 44.2857 83.1459
6.75027 0.441834 5.97169
6.73146 6.47833 48.0892
9.88688 0.739809 1.53078
6.60673 0.310077 8.93477
4.5831 29.6059 117.759
20.0844 6.2723 74.3969
11.4096 7.52986 165.472
37.0971 67.2038 93.5637
4.62256 14.0552 91.0444
2.31155 32.9548 107.672
20.793 14.0493 51.1589
4.24081 3.82786 113.573
19.1391 6.6301 53.0038
20.9502 34.5722 24.7436
6.93349 35.4001 184.036
10.4526 11.4579 36.4439
2.30963 6.83039 1.1478
4.61804 2.99262 44.5
0.198708 18.441 59.383
17.2985 6.08838 27.5712
7.6558 1.00314 66.1088
9.22295 8.71546 69.624
20.5729 23.349 1.28725
8.78151 18.1561 2.06333
7.14544 49.1634 187.384
4.91701 9.36241 12.6264
9.7106 4.27594 65.4488
20.6778 32.2003 102.912
11.1132 59.5613 179.958
9.2475 16.1566 116.691
0.228167 11.3012 24.7375
11.5677 27.1158 89.6317
2.17027 2.46324 4.88512
6.13421 3.25762 61.3875
3.46995 9.0081 3.72553
5.23384 1.04893 27.8373
6.70935 9.47585 5.15929
8.46661 20.8408 76.2772
13.8673 11.668 147.096
13.6376 39.2323 97.8758
2.2974 14.0695 41.4299
14.0655 2.96013 15.4818
11.0781 31.1616 131.948
2.89363 16.8766 43.9298
12.9521 11.152 20.4216
2.0342 2.28408 27.4948
3.07959 9.76986 151.127
2.82853 41.4119 94.3477
10.6598 2.3166 74.717
15.9549 14.071 45.3388
2.70351 12.0073 13.6352
11.4722 33.1457 209.982
1.66679 5.76851 62.0014
0.593025 20.958 7.83309
1.18 37.9275 68.2046
16.2825 0.782996 19.5242
10.8966 0.542567 67.0563
15.1664 16.6024 8.73053
9.04848 3.62189 1.14989
6.56166 8.72095 27.4805
5.85354 16.2192 179.651
16.5783 33.5475 14.5853
2.17759 32.0936 58.6542
16.4737 33.971 125.33
10.2846 13.2045 68.6056
0.101397 0.640875 28.4927
2.91627 17.5777 109.145
3.16824 21.0482 19.4676
7.69487 15.0525 27.395
10.733 4.83277 56.603
15.122 8.61884 14.5257
4.28487 3.08018 14.5761
2.32606 4.14834 151.693
1.56027 47.763 77.4819
15.4841 7.07174 3.66645
7.403 14.7237 84.405
14.2965 2.80464 15.4176
5.39138 8.03021 31.2777
13.8874 13.4703 64.4229
6.75118 13.5707 64.7041
18.0138 65.787 312.176
8.38982 14.2211 51.1226
2.93964 49.0971 55.6551
9.36413 8.16322 87.898
0.993703 16.7208 73.2047
9.1784 3.82584 33.8847
10.5663 11.2315 26.6297
1.75625 3.02305 95.1832
8.82935 63.0017 155.102
19.8665 10.6498 66.8403
0.812167 0.701229 113.04
0.694231 87.9965 178.571
25.9551 0.745651 70.9083
12.3231 2.87317 48.9599
12.9721 17.5862 44.2469
9.53504 25.3294 272.2
24.0489 74.8833 131.617
8.53855 17.2226 72.4652
18.2179 9.22857 10.8405
2.91641 4.57043 0.0702157
5.35109 23.1549 223.026
19.4165 34.3905 17.5877
1.67628 22.7743 93.5857
13.7206 1.13756 99.2941
6.10409 46.9349 85.1078
19.323 10.6458 58.5068
5.58701 4.73708 4.15068
2.70334 21.744 173.753
30.9626 37.5344 80.0762
2.50936 9.89821 37.4608
14.5196 10.4346 57.3615
5.33253 6.86571 8.50672
3.68234 24.578 29.6626
10.7845 16.7977 180.284
25.8888 6.98449 23.3028
12.9963 21.5049 124.056
11.8972 3.28744 123.114
14.167 56.8942 36.8004
9.9682 18.814 85.0315
2.72425 6.86052 73.9625
10.8941 76.712 473.28
32.1457 67.0249 48.1166
4.83848 3.01111 16.9679
10.5147 10.1852 38.6143
0.502278 20.1132 60.7559
17.8225 42.6992 202.718
8.40826 19.1846 353.276
36.8944 47.06 17.047
3.18675 16.7367 5.01068
3.20007 2.47796 12.1407
3.1267 29.0575 176.807
31.4929 19.4844 26.2228
10.3738 44.1039 98.9904
0.0482415 25.257 37.3391
10.8724 6.77369 26.7
1.3852 39.8646 180.566
15.267 1.86526 32.4781
6.75781 8.46735 31.8609
12.5955 7.64456 4.02904
6.1663 10.5621 68.2344
5.3117 0.879112 44.8174
11.6038 15.8371 27.0605
1.7241 3.11997 33.6397
6.24238 4.0616 2.86131
5.14924 13.049 149.587
3.65218 12.7551 98.5761
14.4734 46.5226 24.4518
2.30943 35.9393 338.125
20.9232 39.2764 11.1282
9.57983 12.1493 64.0975
1.01258 32.7975 95.6834
20.5676 5.53565 91.1985
18.9258 37.1617 44.1243
3.69307 8.37083 154.189
15.4997 13.2858 56.3687
2.10271 18.2986 14.7775
7.94746 4.20661 98.4836
8.17256 29.454 22.2626
10.0254 0.394525 42.2585
9.34859 37.1664 51.8058
5.34704 3.5018 66.9684
4.59339 1.95599 30.565
1.12525 13.9555 11.9481
7.04266 24.8016 151.384
27.1166 14.6416 13.829
1.82519 0 0