# pn-170911/RbIIR-60-USN7-1280-1959.psd
# Power spectrum* (dif=0,1,2) (really just |FT|^2)
# NOTE: only the first half! (symmetric)
# weeks: 1280-1959
# 531 clock-days, 4 excluded
# PSD: 1441
120.219 0.0413474 0.0227325
12665.8 0.263144 0.03121
46734.7 0.964385 0.0299626
12963 0.531212 0.029568
14722.2 1.0578 0.0329666
5042.77 0.534834 0.0291707
3712.75 0.553645 0.0309203
2606.46 0.513913 0.0321357
2353.18 0.642676 0.0304324
1648.51 0.587689 0.0323877
1370.83 0.559353 0.0304515
1192.5 0.601478 0.0313187
939.034 0.607336 0.0316556
865.239 0.59669 0.030601
763.989 0.622061 0.0292144
661.861 0.631408 0.0319812
591.7 0.631793 0.0325936
580.76 0.732692 0.0330588
503.782 0.698777 0.0290572
478.567 0.739746 0.0323489
398.491 0.695642 0.0332709
418.223 0.762908 0.0321309
386.818 0.801711 0.0331944
338.059 0.766786 0.0341638
279.235 0.722006 0.0292043
290.839 0.811481 0.0335765
268.56 0.778492 0.0336114
252.874 0.810367 0.0334279
253.228 0.889101 0.0341349
241.468 0.891839 0.0338267
236.449 0.945961 0.0329282
222.227 0.94297 0.0360595
210.85 0.958474 0.0370252
217.969 1.01314 0.0343428
200.75 1.03077 0.0395038
196.095 1.07244 0.0360226
193.514 1.08071 0.0365169
187.494 1.13238 0.0397282
176.926 1.18282 0.0382529
179.443 1.18235 0.0402206
175.21 1.23216 0.0408856
171.325 1.32362 0.0435722
159.108 1.2705 0.0416932
151.51 1.29868 0.0413059
156.656 1.42226 0.0449167
165.62 1.46613 0.0426434
160.539 1.49467 0.0465401
155.734 1.59425 0.0493159
149.832 1.56188 0.0459805
147.341 1.59607 0.0466427
141.991 1.59276 0.0525569
145.912 1.71932 0.0499625
148.123 1.81013 0.0531488
148.672 1.81795 0.0601307
144.388 1.89002 0.0570534
130.911 1.84618 0.0557035
136.58 1.97235 0.0622162
134.464 1.99469 0.0621175
134.39 2.05452 0.0629709
129.744 2.09978 0.0622859
125.037 2.0453 0.0647328
133.382 2.30204 0.0716523
134.345 2.4054 0.0818639
126.624 2.28442 0.0753501
121.101 2.31964 0.0778626
125.875 2.49881 0.0837469
125.584 2.44569 0.0833895
131.192 2.76541 0.0870271
127.405 2.67279 0.0879476
122.397 2.66106 0.0937003
122.883 2.82878 0.0991113
124.917 2.90134 0.0998372
123.972 2.91895 0.103267
123.888 3.08466 0.104963
124.49 3.17332 0.114199
124.507 3.18163 0.113528
117.852 3.17277 0.115383
107.037 2.90736 0.116721
112.736 3.19927 0.123249
119.976 3.51668 0.138981
111.584 3.34968 0.133749
118.792 3.59688 0.145621
112.336 3.54751 0.148374
115.9 3.67463 0.146352
108.188 3.58236 0.147351
108.438 3.60907 0.159114
114.969 3.9192 0.171536
105.377 3.64215 0.167157
112.231 4.0582 0.186201
112.649 4.09948 0.19199
111.431 4.16086 0.186631
108.124 4.1141 0.188662
107.015 4.18529 0.199147
109.918 4.42389 0.205054
107.358 4.44487 0.213504
103.708 4.40198 0.217442
111.484 4.66959 0.216481
112.873 4.92246 0.251466
102.622 4.61308 0.242327
98.6077 4.62537 0.242283
106.559 4.90524 0.264446
110.251 5.24876 0.283295
102.03 4.94724 0.27252
104.954 5.24394 0.287968
105.766 5.32396 0.299785
97.4799 5.02683 0.289706
106.228 5.61268 0.31979
102.225 5.44492 0.312723
104.161 5.6893 0.337892
91.8857 5.13146 0.327683
99.7272 5.60977 0.348285
93.0926 5.31399 0.328358
104.895 6.1869 0.390025
99.8873 5.96151 0.391397
102.544 6.17435 0.409831
96.8744 5.8866 0.398261
93.0408 5.97847 0.412474
99.3179 6.42075 0.444152
94.7339 6.16012 0.434514
96.6216 6.38211 0.45281
96.9219 6.49478 0.471201
96.4011 6.61778 0.483345
101.341 6.96969 0.50704
93.5963 6.61745 0.49644
91.8499 6.69164 0.504437
97.6756 7.20027 0.565
101.001 7.51804 0.589682
90.9251 6.84192 0.542194
93.5054 7.21345 0.598431
91.6316 7.23221 0.593003
98.2561 7.6449 0.626888
91.6229 7.41575 0.638603
97.7663 7.97587 0.670994
95.897 7.99087 0.695368
97.3051 8.17503 0.69993
94.2121 7.937 0.695015
85.8397 7.41762 0.68367
87.0103 7.65411 0.700591
89.1393 7.92815 0.748738
85.5927 7.67713 0.719465
90.3946 8.22364 0.786669
81.4668 7.63492 0.749223
83.3526 7.87561 0.781152
92.0477 8.80709 0.858471
84.4132 8.20089 0.829846
90.8856 9.00998 0.912707
78.353 7.84308 0.800895
80.5499 8.23355 0.874659
84.7236 8.80456 0.939158
85.4503 8.90072 0.95466
83.3796 8.85228 0.96729
84.9713 9.17705 1.01933
87.0491 9.40642 1.04129
84.4058 9.32564 1.03726
79.0836 8.7763 1.0065
80.2225 9.05912 1.04181
78.3217 8.81862 1.01344
80.4749 9.26885 1.10639
83.3743 9.72391 1.18107
86.699 10.3013 1.26139
82.0935 9.68591 1.17979
78.6229 9.47259 1.16573
80.4161 9.85679 1.25612
86.3668 10.7647 1.34398
78.6366 9.61641 1.22012
80.1438 10.1402 1.32764
76.4163 9.85324 1.30902
78.3022 10.2123 1.34108
77.8396 10.2937 1.38286
72.7038 9.74704 1.33554
78.7684 10.5832 1.45959
78.0546 10.7677 1.53616
74.1458 10.1397 1.44994
71.6677 10.0731 1.4513
72.6241 10.2854 1.46828
80.9999 11.6107 1.70637
78.5763 11.4132 1.67612
72.5893 10.5342 1.56289
76.9124 11.2575 1.69334
71.5361 10.7168 1.6284
73.9497 11.0962 1.71709
70.9505 10.6459 1.6209
78.0156 12.1257 1.87985
67.71 10.744 1.75487
78.5001 12.1922 1.92988
73.7267 11.5655 1.85829
76.1412 12.3036 2.01166
67.654 10.9361 1.82815
72.1851 12.1387 2.03152
71.9397 11.9275 2.00097
69.5925 11.9523 2.06028
63.7432 10.6462 1.8255
72.7466 12.4914 2.1568
71.8362 12.4264 2.13863
69.6874 12.1944 2.1515
73.0876 12.9952 2.33974
65.5533 11.7317 2.1269
72.387 13.1026 2.37612
64.7977 11.6438 2.17311
69.079 12.7973 2.41957
69.3259 12.762 2.36019
69.2683 13.1471 2.55025
67.2153 12.6003 2.40819
69.8131 13.2957 2.54336
66.4407 13.0327 2.56388
66.5707 13.0905 2.61759
64.2697 12.7464 2.56971
65.5867 13.067 2.64955
60.3311 12.2545 2.54931
67.6658 13.5174 2.73384
64.3413 13.2683 2.73866
62.1031 12.6957 2.61968
64.3377 13.501 2.9103
62.5261 13.1752 2.81034
61.0429 13.0793 2.80218
64.4536 13.7412 2.93868
60.373 13.1889 2.87376
65.352 14.4748 3.20581
65.2152 14.2661 3.1361
63.861 14.1936 3.15174
59.2017 13.6907 3.21607
62.306 13.6588 3.06313
64.5708 14.6594 3.33093
65.8575 15.0529 3.47469
62.1343 14.4074 3.43284
61.54 14.4038 3.39373
61.2797 14.4151 3.4384
58.5797 13.9878 3.39991
57.6107 13.7548 3.37283
57.0286 13.7928 3.314
55.7438 13.8435 3.46817
62.6322 15.301 3.77034
61.1921 15.5492 3.98842
61.8395 15.2101 3.80492
57.1479 14.7349 3.78273
61.8511 15.6935 4.03233
57.2128 14.6374 3.76587
53.7049 13.9851 3.66016
56.3515 14.5381 3.81614
50.8139 13.5842 3.68696
53.6835 14.32 3.88177
55.6424 14.9486 4.05468
55.0989 14.737 4.00105
56.3718 15.6216 4.32968
53.1358 14.7164 4.10541
56.7107 15.5843 4.31443
57.3077 16.0867 4.52238
58.8275 16.3456 4.56639
59.7373 16.8507 4.77681
54.3264 15.5794 4.48023
55.9601 16.4284 4.84671
51.3273 14.9137 4.43772
58.0621 16.7819 4.89701
50.3641 15.2382 4.60889
53.8491 15.9884 4.79278
53.9404 16.245 4.8836
50.9442 15.2543 4.65565
52.8933 16.3315 5.07921
51.7419 15.7137 4.82203
48.1308 14.7145 4.55295
49.1822 15.158 4.75193
48.9577 15.5638 4.9244
53.2259 16.693 5.28759
46.6391 15.0019 4.85661
51.4753 16.148 5.18907
48.8396 15.798 5.18421
51.9361 16.9325 5.48928
48.152 15.9826 5.26764
47.9457 16.075 5.43441
46.3051 15.5116 5.2238
46.2563 15.219 5.07039
44.6912 15.0503 5.14987
48.4468 16.6654 5.74773
49.168 16.994 5.93867
50.0552 17.0713 5.95739
50.8827 17.4654 6.122
44.3624 15.2873 5.36177
50.1591 17.6437 6.20842
45.3029 16.0568 5.76976
45.8457 16.0449 5.68879
45.6494 16.3723 5.92958
48.5032 17.5174 6.35739
43.3134 15.8874 5.82525
43.6035 16.0193 5.99918
43.1923 16.0865 6.0541
46.0148 16.7925 6.16313
43.0069 16.3374 6.19054
45.3161 17.2794 6.69343
48.5355 18.2563 6.85096
43.4981 16.6862 6.43329
46.6095 17.9031 6.87704
42.5991 16.7184 6.58383
47.0277 18.2593 7.16117
42.3773 16.9842 6.84979
45.085 17.8082 6.97545
45.3294 18.2865 7.39839
42.9711 17.0076 6.76461
41.5926 16.8701 6.88542
42.4742 16.8456 6.81701
41.6102 17.2141 7.1192
39.8885 16.2781 6.70425
41.7638 17.564 7.43807
46.7479 19.3984 8.04245
45.837 19.1537 8.01038
41.8447 17.792 7.58139
42.197 17.9302 7.56615
42.2252 17.6865 7.43797
38.2416 16.6457 7.2691
39.5612 17.5016 7.82275
41.8186 18.1796 8.0029
39.7164 17.1088 7.48178
42.9185 18.5928 8.03294
39.4143 17.6657 7.84227
40.1376 18.0235 8.15915
39.6801 18.1493 8.26559
40.4176 18.1771 8.15854
38.002 17.3274 7.96463
40.8443 18.9175 8.68495
39.4698 17.96 8.24449
38.9037 18.0937 8.44205
37.7822 17.5606 8.14944
39.0577 18.6015 8.91435
38.3478 18.0525 8.51441
38.534 18.3313 8.85449
35.9388 17.2417 8.36168
37.3255 17.937 8.77787
36.9205 17.265 8.28723
40.1681 19.3458 9.42728
37.8605 18.4151 8.98658
36.7585 17.9674 8.91452
35.7065 17.434 8.64018
36.9944 18.137 9.01343
36.1789 18.4509 9.44832
35.6162 17.627 8.8008
38.4814 19.2648 9.83057
37.5989 19.2069 9.85005
35.1518 18.0129 9.37917
37.037 18.6596 9.4147
34.9866 17.9021 9.25657
34.2627 18.088 9.71826
34.4599 17.8552 9.41084
35.7724 19.1349 10.1807
35.2886 18.2164 9.50889
36.4351 19.391 10.4241
33.953 18.0464 9.61291
36.1476 19.535 10.5865
34.162 18.5568 10.0823
34.7983 18.8347 10.2913
34.5955 18.7357 10.4018
35.9057 19.4915 10.663
31.8435 17.6775 9.93052
33.1919 17.8781 9.8461
35.0495 19.5864 10.8855
31.4437 17.9248 10.1476
31.3581 17.6928 10.0297
32.6301 18.1401 10.2415
31.8534 18.7765 11.0354
32.1781 18.1742 10.4204
31.3427 17.884 10.1608
32.4552 18.8956 11.1703
30.0195 17.7622 10.7712
33.1475 19.0621 10.9943
31.4133 18.5506 11.1449
31.2293 18.3375 10.8449
31.65 19.2632 11.7223
32.7118 19.1252 11.2618
31.5916 18.8555 11.2412
29.194 17.9437 10.9988
29.8436 18.2516 11.1723
29.6057 18.3524 11.4667
29.6686 18.2178 11.3229
30.4222 18.624 11.6058
30.5053 18.8869 11.7112
29.3081 18.0984 11.376
32.4253 20.4437 12.8938
29.1373 18.1982 11.6202
29.3447 18.2896 11.4627
27.8371 17.8775 11.6026
30.6197 19.2753 12.2197
30.7732 20.0197 13.0957
28.0279 17.7083 11.4185
30.7354 20.3735 13.5281
29.1656 18.5336 12.1273
31.25 20.3556 13.2237
27.3042 18.3713 12.5394
30.3479 19.7589 13.1073
28.3432 18.3687 12.1123
29.7641 19.7937 13.1122
27.0301 18.4427 12.5927
28.0255 19.0084 12.9608
26.989 18.5516 12.869
29.8405 19.6577 13.0392
28.2496 19.7025 13.864
27.9965 18.8099 12.8826
29.9922 20.9161 14.6062
27.9465 19.2033 13.3658
27.8307 19.7105 13.991
28.546 19.5915 13.636
27.1971 19.2932 13.5433
27.8753 20.3601 14.8023
27.0631 18.5442 12.9645
26.529 18.6273 13.2996
28.8982 21.0703 15.1914
24.2284 17.2554 12.6524
27.284 19.8503 14.5114
27.8507 19.835 14.5415
29.5037 20.9016 14.7391
26.6837 19.6373 14.4516
25.1474 18.8627 14.1227
26.2886 19.6916 14.6626
27.009 20.3773 15.2343
23.7757 17.2689 12.9139
23.8939 17.9173 13.5557
25.9177 19.6152 14.8937
25.5879 19.3767 14.6871
24.8892 18.801 14.2481
25.0525 19.8153 15.5715
25.4521 19.7974 15.5475
25.8979 20.0222 15.6813
24.5219 18.854 14.8539
23.9824 18.3523 14.2231
23.6907 18.4455 14.4921
24.1554 18.6955 14.6655
24.4835 19.1389 15.1652
25.2219 19.8207 15.4635
22.0816 17.7575 14.3884
23.6601 18.8875 15.2379
24.5239 19.487 15.3846
24.5047 20.2528 16.8141
25.1629 19.9683 16.0425
24.2981 20.0132 16.1376
22.2653 18.3183 15.2175
23.4051 18.9749 15.6196
22.7443 18.2925 14.8738
22.7348 19.1211 16.0268
24.0844 19.6462 16.0878
23.9576 20.0369 16.6768
23.8294 20.3674 17.0555
22.4052 18.9588 16.3027
22.3701 18.6419 15.739
20.8782 17.8774 15.5291
23.9387 20.2916 17.0878
23.9703 20.5733 17.5636
23.2474 19.8574 16.9482
22.1725 19.4476 17.0754
23.4997 20.0506 17.1337
21.6251 18.5595 16.1316
21.1085 18.9948 17.0338
20.4539 17.6942 15.537
21.7195 19.9334 18.1002
21.2876 18.6858 16.6908
21.9203 18.8757 16.7057
22.3445 20.0504 17.8927
20.5983 18.5527 17.23
20.5126 17.7227 15.6674
22.2703 20.6472 18.9338
22.3621 19.7673 17.3951
20.9778 18.9956 17.0823
20.0253 18.846 17.6996
20.248 18.1563 16.4928
19.7048 18.4868 17.5231
21.4218 19.52 18.1365
20.3822 18.6244 16.9334
19.1137 17.7808 16.71
21.4929 20.9154 20.1191
20.5112 18.8579 17.6949
20.1977 18.5171 17.3279
20.8887 20.0001 19.0629
21.3043 20.6041 19.9062
20.9311 19.4877 18.4365
18.8948 18.0178 17.296
21.1499 20.6595 19.9013
20.0129 19.5002 19.1163
19.4284 18.5798 18.0695
18.9826 18.5002 18.3439
19.5575 18.9926 18.7373
19.4293 19.0056 18.9429
20.7346 19.7289 19.0371
20.1618 19.8073 19.2888
19.258 19.4509 19.6116
17.8312 17.7967 18.1178
19.8795 19.6764 19.4255
19.2399 19.8188 20.2249
18.5794 18.8111 19.493
19.6825 19.2468 19.2033
19.2506 19.5089 19.7169
19.6077 20.3373 20.8871
18.7809 19.4668 20.5663
17.6701 17.2164 17.6422
18.3112 18.1847 18.2933
18.7568 19.7785 20.7296
19.3942 20.0323 20.7326
18.8495 19.5188 20.0796
17.7222 18.5571 19.6387
17.6576 18.2921 19.2828
17.5878 18.5277 19.4099
17.9411 19.5488 21.2907
18.1345 19.2507 20.4656
18.0047 19.695 21.6786
18.6812 19.3582 20.309
16.6066 17.6119 19.1014
17.3567 18.8003 20.5012
17.7966 19.0238 20.5084
17.1515 18.2482 19.8437
17.3492 18.7486 20.2767
16.1164 17.524 19.7479
17.6068 18.6254 19.731
17.8686 20.163 22.2476
16.8966 18.4799 20.4632
16.8925 18.7312 21.077
17.0728 18.7516 21.068
17.4929 19.0883 20.7031
16.8456 19.0958 21.6059
16.9098 18.975 21.0608
16.201 18.4444 21.1596
16.2954 18.6064 21.5716
16.1506 17.7968 20.0908
15.7334 18.2853 21.3606
15.8224 17.2114 19.3013
15.9523 18.3577 20.764
15.8742 18.7599 22.0912
15.3622 17.4547 20.2301
16.1181 18.5012 21.6488
15.8195 17.8959 20.4922
15.8067 18.0413 20.8614
16.3868 19.3069 22.1627
15.3488 17.8945 20.8411
15.26 18.5364 21.9913
14.5709 17.2828 20.9153
16.1997 19.3797 22.9932
15.9069 19.0431 22.9191
15.1484 17.387 20.3664
15.4404 18.9309 22.8855
14.2358 17.1311 21.0039
14.9001 18.1654 22.3015
15.0085 18.5928 23.397
14.8355 17.1687 20.6189
14.5652 17.6615 21.7432
14.8188 18.0525 21.796
14.8651 18.2851 22.5272
14.9061 18.1117 21.9431
14.4515 17.782 21.9966
14.429 17.8151 22.4927
15.2963 18.9067 23.4323
15.2986 19.1764 23.9704
14.8606 18.1294 22.3016
13.7277 17.4096 22.3129
13.7047 16.8303 21.2337
13.8148 17.7175 23.0128
14.6905 18.3088 23.1646
15.1147 18.9916 23.7713
14.447 18.5832 24.0252
14.3386 18.1007 22.733
13.4205 17.3721 22.8607
13.9861 17.9355 23.538
14.0841 17.6342 22.3269
14.523 19.539 26.1487
15.3436 19.9018 25.5473
13.265 16.7545 21.9468
13.7421 17.6074 22.6026
13.4295 17.8215 23.7625
14.1993 18.6966 24.2499
11.9844 15.9835 22.2866
14.4113 19.1253 25.124
12.9824 16.932 23.2478
13.0189 16.6072 22.1217
13.7975 18.6018 24.8831
12.914 17.2477 23.187
12.6332 16.6406 22.6347
13.7701 18.295 24.271
13.7195 18.7932 25.7082
13.739 17.9111 23.6046
12.4838 16.8367 22.5843
12.479 17.7321 25.319
13.7215 18.8448 26.2967
13.81 17.7793 22.9619
12.5479 17.995 25.9154
13.8317 18.8645 25.6446
13.3403 18.6453 25.7787
13.0115 18.1938 25.5365
12.9213 17.8294 25.2101
13.8105 19.1913 26.4739
13.6192 19.5597 27.8837
13.0081 17.8431 24.9279
11.6136 16.1371 23.7165
13.7116 18.747 25.588
12.612 18.0309 24.9602
10.5768 15.0361 22.046
10.9176 15.5697 23.1247
11.8185 16.3231 23.249
12.1807 17.4826 24.8631
12.2267 17.9586 26.2672
12.2636 17.1233 24.223
11.5562 16.7569 24.6405
12.7956 18.9053 27.4523
12.18 17.5325 25.9592
12.1764 17.671 26.1291
12.326 17.4482 24.6708
11.1728 16.6639 25.2559
11.7573 17.3018 26.0365
11.7156 16.587 24.4487
12.3363 17.8413 25.5144
11.5805 17.8925 27.5092
12.0871 17.3583 25.2951
11.2739 16.6032 24.7298
11.9861 18.4122 27.8987
12.0537 18.4447 28.4119
12.3405 18.0374 26.8791
11.2891 16.7725 25.6567
11.7641 18.1852 27.6162
11.0389 16.2118 24.6237
11.6659 17.9784 27.0355
10.7696 16.64 26.213
11.2935 16.846 26.3147
12.3748 18.7126 27.9645
11.1903 16.7586 25.2734
10.9629 17.4546 27.5457
10.9583 16.8705 26.4387
11.7034 18.3594 28.6955
11.6186 18.2509 28.7375
10.9437 16.3365 25.5989
10.9278 17.2459 27.3832
11.5773 18.1724 28.3512
10.9782 17.4647 28.0306
11.5487 17.73 27.1028
10.4832 16.3408 25.3803
9.81786 16.3364 27.873
11.272 17.4466 27.5633
11.1026 17.5997 28.0606
10.8306 16.6667 25.5511
9.34379 14.6883 23.6014
10.2616 17.3364 29.0752
11.2582 17.5344 27.0199
9.47252 15.6973 26.6981
10.4611 16.6135 27.05
10.181 16.0951 25.8239
10.4058 16.9241 27.4937
10.1564 16.8156 28.3129
10.1246 15.4223 24.3723
9.68804 16.9321 29.1105
10.2413 15.9273 26.1628
10.0457 16.0992 25.7567
10.3422 17.7347 29.2585
9.76691 16.3592 27.7233
9.83552 16.2597 27.2649
9.35269 15.0884 25.1157
9.7259 16.693 28.6721
10.236 17.2339 29.26
10.0435 16.4169 27.5684
10.229 17.2536 29.1294
9.83634 16.6644 29.0584
9.96963 15.8319 25.8407
8.78995 14.7718 25.5394
9.26332 15.868 27.5716
9.406 15.8706 27.6302
9.87141 16.6951 28.8986
10.6511 17.6033 28.2444
9.49928 16.7559 29.7473
10.1636 17.2222 29.1211
9.58685 16.6569 28.2662
8.44838 14.6502 26.3892
9.48323 16.8551 29.526
9.22874 15.9931 28.7571
9.91322 16.9101 29.1161
9.46009 16.6434 29.1286
9.19186 15.7328 28.1382
9.76853 17.112 29.4354
9.08114 16.354 30.0955
9.5933 16.4788 29.1211
9.38308 15.6924 27.4739
9.93063 18.3208 32.3848
9.40844 16.5966 29.9128
9.11165 15.6854 27.7184
8.85255 15.8512 29.3261
10.0422 17.1524 29.3345
9.18105 16.7592 29.826
8.58771 15.5612 29.2231
9.92737 17.5992 30.7063
9.492 17.1709 30.3162
8.79432 16.296 31.2093
9.56654 16.7808 29.46
8.54008 15.8174 28.8171
8.07637 14.9022 28.7043
9.49694 17.3005 31.2544
8.78272 15.4282 28.2197
8.80639 15.7115 28.1508
8.94404 16.7253 30.5718
8.95519 16.8678 31.6258
9.16761 17.1398 31.5751
8.4228 15.2597 28.1579
8.48022 16.1638 30.7235
8.52918 15.5939 28.6069
8.15026 15.8587 30.7848
8.40797 15.5424 29.3152
8.10402 15.0981 28.954
8.35959 15.396 29.5025
8.7714 16.4243 30.6789
8.32764 15.6369 29.5341
8.21911 15.0655 27.851
7.85413 15.6583 31.2249
8.68668 15.8303 29.272
8.07737 15.7793 30.628
7.7284 13.9232 27.2928
8.75908 17.178 32.3128
8.53339 16.5374 31.6212
7.92519 15.2983 30.7835
8.03931 14.8145 28.2199
7.86187 15.111 29.1539
7.95127 15.2689 29.6597
8.12464 15.6761 31.2242
8.30336 15.4147 28.7559
7.86945 16.3015 32.2021
7.83501 15.066 29.5725
8.04993 16.2961 32.7927
7.7952 14.6994 29.2599
8.0966 15.7559 31.4387
8.51647 16.9114 32.1514
7.48192 14.8149 30.5069
7.90314 14.8269 28.4417
7.62706 15.3089 30.4078
7.38139 14.5062 28.9267
7.54181 14.9945 29.391
7.16235 14.6861 30.8103
8.19746 15.9383 30.5161
7.01205 14.0455 29.042
7.61784 15.2484 29.9909
7.34484 15.3176 32.0886
7.57716 14.9659 29.9104
7.08654 14.646 30.2948
6.96999 14.1765 30.3351
7.59124 15.1694 31.9723
8.15308 16.2167 31.9995
7.6114 15.4052 30.9337
7.09821 14.7778 31.329
7.20358 14.3151 29.2738
7.07023 13.8733 27.8092
7.08462 14.9111 31.4604
7.60522 15.2877 30.0685
6.91362 14.9743 31.559
7.05596 14.4267 30.646
7.0259 14.2623 30.1082
7.42518 15.4063 31.9101
7.18907 14.3239 28.5325
6.84529 15.0128 32.1332
6.63441 13.2523 28.2496
6.80501 14.3202 30.4245
7.30429 15.5046 32.1589
7.19412 14.8571 30.509
6.67403 14.5117 31.054
6.65286 13.9156 30.4856
7.34093 15.9911 34.025
7.1217 15.1316 32.8358
7.05807 14.3235 29.8604
6.43478 13.9872 31.2169
6.97762 14.6771 31.6433
6.702 13.9009 29.812
6.43064 13.3983 29.3849
6.44523 13.2058 27.7688
6.81322 15.6685 34.5116
6.81605 13.9178 31.3851
7.14234 14.7263 30.6946
6.8322 15.0265 33.0846
7.20678 15.4465 33.2303
7.30733 15.6391 32.3085
6.36191 13.726 30.2476
6.66517 14.9333 32.7913
6.63738 14.2198 30.8705
6.68049 14.8505 33.109
6.77274 14.7263 32.6732
6.92214 14.743 30.8326
5.68075 12.3145 27.5975
6.06988 13.9648 31.7032
6.29014 13.2181 28.5123
5.88669 13.4939 29.9523
5.98506 13.7147 31.5603
6.35089 14.4352 33.3385
6.53452 14.1395 31.0241
5.99165 13.2753 30.9995
6.33559 13.7795 30.1826
6.00161 13.6446 31.2098
6.30761 14.4259 32.0432
5.83294 12.8171 29.8064
6.30465 13.9411 30.7402
6.05687 14.2726 33.3757
6.07281 13.8123 32.4912
6.14445 13.6879 31.1177
5.9313 13.4419 32.1786
6.32711 13.9435 32.4459
6.19008 13.1319 29.9913
6.34935 14.9878 35.6005
7.12474 15.729 33.4887
5.92889 13.598 31.6039
6.23283 14.2451 31.7433
5.89337 14.0064 32.5692
6.08883 14.7821 35.8709
6.49011 14.2813 31.9951
5.85529 13.7469 32.3138
5.72664 12.623 28.9126
5.46034 13.1677 31.5032
5.82783 13.2853 30.9921
5.64775 13.5348 33.1635
6.20437 13.5212 30.2132
5.48521 12.7225 30.4183
5.71545 13.1578 29.5504
5.34274 13.1139 31.9255
5.65564 13.495 33.3537
5.97166 13.5296 31.7998
5.57721 12.8196 30.7552
5.64511 13.0767 31.7206
6.05202 14.0507 32.4201
5.86358 13.862 31.8702
5.61174 14.0997 33.8487
5.65193 13.6414 34.3478
5.97853 13.4069 30.2015
5.20315 12.6689 30.8985
5.45031 13.8753 35.4345
6.02682 13.8397 32.9813
5.40008 12.8417 32.7416
5.9327 13.9538 32.84
5.72502 13.8385 33.181
5.80484 14.626 37.303
6.5907 15.623 36.6022
6.12837 15.1461 37.591
6.30553 15.0884 35.8183
5.7722 14.3436 36.6028
6.07684 14.1824 34.1698
5.65964 13.6037 33.5928
5.8389 14.4592 35.8691
5.9858 14.2564 34.0717
5.68443 14.5526 36.7363
5.7865 14.423 36.8446
5.7882 13.943 36.2553
6.05894 14.1408 34.9982
6.04941 14.7394 34.6676
5.4561 13.656 35.0153
5.84446 14.2041 34.6524
5.62772 14.1299 35.8848
5.8617 14.6979 37.2877
5.7522 14.1826 36.2343
5.82794 14.193 36.8757
6.25391 15.19 36.8852
5.83651 14.5825 36.3966
5.72354 14.1723 36.348
5.67801 13.6798 33.8564
5.6246 14.1856 36.1948
6.09932 15.4278 38.0763
5.98918 15.4414 38.5691
5.6094 13.6917 35.19
5.63978 14.1579 35.22
5.52455 14.1442 35.8587
5.6648 14.8534 38.0054
5.7706 14.7628 38.7769
6.11746 15.1736 37.0899
5.35597 13.6183 35.1219
5.15358 13.494 36.7494
5.81911 14.3947 36.092
5.52801 14.7248 39.2364
6.03716 15.2726 38.3707
5.45436 13.4736 34.1798
5.11743 13.1597 33.8564
5.15408 13.4406 34.9313
5.11974 13.1377 34.5764
5.62383 14.8922 38.3782
5.55612 14.2752 36.8553
5.27748 13.4738 34.6999
5.09484 13.4441 35.9527
5.3686 14.0953 37.0087
5.20537 13.512 36.2989
5.33135 13.3618 34.1101
4.93483 12.9248 34.5805
5.29773 13.8586 36.2931
5.3537 14.1383 37.0686
5.13233 13.3797 37.2891
5.63381 14.6301 38.1319
5.39223 14.0904 36.6202
5.17669 13.7118 36.4405
5.11491 13.2613 35.5322
5.11495 13.8284 38.992
5.55992 13.8695 34.5416
4.88958 13.3591 34.9805
4.94669 13.9308 38.7178
5.15809 13.4175 36.5513
5.0882 13.3749 35.6878
5.03581 13.2368 35.1563
5.02053 13.4012 36.4776
5.10383 14.1812 38.4335
5.09482 13.384 37.1665
5.10726 13.3183 35.2952
4.99244 13.473 35.8149
4.5475 11.7201 32.9325
4.78057 12.7944 34.952
4.89744 13.595 36.6337
4.78281 12.3963 34.5515
4.92946 13.5823 36.0562
4.60949 12.4648 35.3959
4.63626 12.3516 35.677
5.14806 13.5853 34.6528
4.59449 12.3677 33.8517
4.62018 12.6824 35.104
4.70127 13.0307 36.208
4.88193 12.9724 35.4168
4.75739 13.5398 37.8414
4.90168 13.6601 39.5867
5.17182 13.2974 35.0342
4.56576 12.3572 33.9864
4.49028 12.6452 36.5972
4.82143 12.841 34.8912
4.60672 13.497 39.4804
5.19578 13.858 36.6941
4.69882 13.0336 35.7812
4.61794 13.0392 35.6827
4.35244 11.9938 34.2512
4.35736 11.8323 32.5013
4.08484 11.882 36.2593
4.86557 13.6261 38.7417
4.91919 12.9445 34.4277
4.38385 12.629 37.5887
4.87446 13.1773 33.6764
3.97654 11.9174 36.6622
4.69805 12.5271 35.4211
4.56063 13.0092 36.168
4.22974 11.3062 32.5537
4.22157 11.8469 32.877
4.22104 12.2577 33.9824
4.11169 11.9389 35.585
4.40489 12.5841 36.8043
4.57136 12.4101 34.5553
4.44623 12.8808 36.2901
4.32847 12.3222 35.6171
4.30192 11.9831 34.1387
4.17238 11.9051 35.2213
4.35162 12.142 35.3793
4.46399 12.6674 36.4425
4.74238 13.9043 37.2509
4.10427 12.2209 38.0215
4.58237 12.6938 36.3384
4.43881 12.7481 36.5367
4.26538 12.26 36.1219
4.41309 12.6557 36.3389
4.33251 12.9151 39.0384
4.49758 12.3577 36.4439
4.34344 12.5884 38.4257
4.5888 12.1002 33.6068
4.2161 13.0433 37.6592
4.21791 11.598 33.4239
3.99635 11.9593 35.2561
4.0676 12.3152 37.4385
4.43463 13.2388 40.1563
4.75657 13.0433 35.9917
4.07844 12.1956 36.3113
4.14294 12.1099 36.1601
4.23451 12.4328 36.4018
4.207 12.7174 37.0845
4.05601 11.5053 33.9078
3.91363 11.8749 36.4573
4.12721 11.6314 33.9173
3.97073 12.088 36.7874
4.20734 12.3335 35.6419
3.87375 11.8077 36.4457
3.9999 11.676 36.6335
4.27 12.248 35.3668
3.98332 11.6357 36.0015
3.96612 11.4122 34.5103
4.0537 12.1667 36.525
4.25474 12.799 35.7744
3.85568 11.7409 35.9131
3.91715 11.9875 37.7146
4.06655 11.8078 34.777
3.80548 11.7018 35.858
3.9533 11.919 35.7339
3.8203 11.0486 33.1847
3.66058 11.6752 37.0401
4.02736 11.8026 36.3336
4.03629 11.9256 36.2977
4.06834 12.5472 39.8823
4.52432 13 36.1632
3.78719 11.904 38.2628
4.15051 12.3517 36.267
3.81335 11.5897 36.0263
3.9602 11.958 37.5676
4.13937 12.2013 34.8275
3.70626 12.1637 39.316
4.10526 11.5692 33.4341
3.70453 11.9782 36.422
3.76169 11.6839 36.346
3.81784 11.9536 38.2872
4.06796 11.9889 35.6253
3.61656 11.523 38.7423
4.18652 12.5202 37.9703
4.03825 12.6451 39.059
3.93546 11.7594 38.0876
4.06309 12.3689 38.6111
4.14761 12.8196 38.7641
3.76739 10.7844 32.889
3.3915 10.8526 35.0381
3.68075 11.5436 37.1198
3.75279 11.2812 36.6406
3.90418 11.9841 37.349
3.84918 11.7133 36.0458
3.65087 11.0013 34.7108
3.64957 11.6338 36.5174
3.7106 11.8131 38.6401
3.94298 11.6023 35.02
3.55614 11.1571 34.9148
3.66298 12.0319 38.291
3.76877 10.8529 33.6453
3.51355 10.7753 33.996
3.55104 11.1486 34.2623
3.30297 10.165 34.4355
3.71247 11.719 36.2106
3.42244 10.4327 34.5141
3.70583 11.8035 35.7179
3.55026 11.1779 35.6819
3.54185 10.8877 35.1668
3.74332 12.5137 38.1823
3.59117 11.0205 34.1022
3.30298 10.5719 34.4086
3.37122 10.7445 36.3866
3.62648 10.9934 34.6877
3.43662 11.1126 37.1311
3.56985 10.6533 34.7512
3.5213 10.9516 35.323
3.54397 11.4461 36.3351
3.49206 11.0492 37.654
3.87966 11.8073 35.3024
3.38209 11.0887 37.1034
3.68344 11.1764 34.274
3.50931 11.8167 35.5394
3.21193 10.6415 36.431
3.39453 10.4105 35.6743
3.57526 11.1641 36.0839
3.5443 11.491 38.5994
3.93007 12.4512 36.7727
3.3116 11.124 36.6662
3.30838 9.69436 32.7732
3.35042 11.4588 37.2697
3.50133 11.2205 37.7979
3.5734 11.0974 36.6737
3.48259 10.6808 33.3252
3.3711 11.2892 35.3693
3.20571 10.6855 35.6736
3.3694 10.9408 35.5978
3.25371 10.6032 35.5662
3.41198 11.4374 37.4044
3.38718 10.6847 36.4418
3.42513 10.5502 34.3455
3.29412 10.8377 34.3435
3.11305 10.2794 35.3707
3.38379 11.422 36.5347
3.28447 10.7644 35.505
3.1887 10.5259 38.0065
3.59006 11.2525 37.3968
3.52777 11.2352 35.3759
3.19568 10.7266 35.9075
3.39785 11.9227 38.7488
3.29543 10.3627 35.2672
3.28932 11.1284 37.7742
3.36125 10.8572 35.256
3.2075 10.0022 33.9767
3.22644 10.4882 31.7543
2.83466 9.69847 34.3531
3.1363 10.2095 34.1166
3.11417 10.312 33.4646
2.97697 10.2655 36.2357
3.28203 10.9613 38.8418
3.54908 11.4924 38.6771
3.32383 10.1956 32.1116
2.88309 9.88239 32.4743
2.91184 10.3472 35.1435
3.06359 10.0206 35.889
3.23188 10.6492 37.0153
3.2656 10.4391 34.8158
3.12943 10.312 34.7039
3.09979 9.76265 31.0327
2.64343 8.88976 30.8984
2.77239 9.41645 34.6472
3.24118 10.7863 34.434
2.95796 9.95707 34.9898
3.10975 10.1037 34.338
3.05165 10.5734 38.4331
3.37733 10.3185 32.9813
2.96784 10.8544 39.4626
3.45351 10.6227 34.8502
3.22722 12.0134 39.7263
3.19017 9.85075 34.3066
3.00756 9.92399 34.7433
3.23852 11.2178 35.1234
2.95927 10.3952 36.4461
3.15018 10.7674 36.0164
2.96176 10.0478 35.959
3.103 9.98515 34.01
2.96065 10.0968 33.1921
2.78092 9.68919 34.075
2.81685 9.14865 34.2686
3.15099 10.5119 33.5483
2.83196 10.0213 35.635
3.08634 11.1764 39.069
3.24588 10.7238 37.0035
3.08853 9.8619 33.2419
2.77231 9.67268 34.9051
3.04593 10.0053 34.3173
3.02414 10.77 36.9207
3.10846 10.1882 33.7853
2.87491 10.6077 37.6456
3.15185 10.0323 33.1805
2.66769 8.88247 29.4413
2.48328 9.18273 34.6139
2.91994 10.0008 34.915
2.92152 10.293 35.7628
2.99003 10.5979 37.055
2.93907 9.29094 34.9112
3.07087 10.9676 38.4089
3.19942 10.2753 33.8137
2.81148 9.95927 35.0402
2.80358 9.76622 35.7204
2.95417 10.2624 35.2881
2.8241 9.49981 34.6736
2.94314 10.6119 35.3621
2.67602 8.10113 29.7655
2.60197 9.25372 33.9082
2.82087 9.58496 32.8596
2.74929 9.93879 33.7771
2.77999 9.74401 34.5018
2.80381 9.97814 35.6103
2.92318 10.3225 36.1615
2.89739 9.73582 33.1925
2.68987 10.1269 35.7285
2.69422 9.40253 36.2351
2.99651 9.39777 31.4294
2.58411 9.62648 33.6108
2.68317 9.33642 35.1526
2.95038 10.497 34.3523
2.66267 9.13637 31.494
2.43748 8.89758 34.449
2.77868 9.19403 31.7551
2.67517 10.2721 36.8886
2.82142 9.50972 33.3531
2.6227 9.35804 34.3109
2.70479 9.6345 35.6463
2.82946 9.9067 35.2393
2.71979 9.11396 34.6331
2.9415 10.3178 33.77
2.61369 9.82188 36.6543
2.82649 9.52976 34.5345
2.81288 10.6224 36.8907
2.70111 8.902 34.6388
2.8842 10.4094 36.4544
2.82401 9.87534 35.0925
2.76315 9.7243 33.9456
2.6249 9.85112 36.8761
2.89324 10.1985 37.6393
2.94842 10.2639 36.0819
2.71306 9.72769 36.512
2.85141 10.2447 38.5141
2.91771 9.63396 35.6618
2.89184 10.1879 35.8963
2.83653 10.0222 33.0616
2.50079 9.63198 37.581
2.9454 10.1853 35.2751
2.66387 9.67641 36.9831
2.84467 9.60802 34.8939
2.75131 9.97915 35.909
2.8198 9.81909 35.3978
2.63544 9.20637 30.2993
2.29829 8.61551 34.0012
2.61203 9.45943 35.7534
2.82122 9.69532 33.2661
2.48553 9.28164 32.6933
2.48474 8.99024 35.4977
2.74342 9.92379 35.0975
2.5921 9.08483 33.202
2.5753 9.52692 34.7019
2.60284 9.37086 34.7191
2.56725 9.01029 34.2359
2.58862 8.98261 33.728
2.59174 9.4812 35.1909
2.6689 9.24214 32.156
2.47928 9.39939 33.4944
2.51188 9.75458 36.5546
2.72785 9.41768 34.6741
2.59373 9.27097 34.1684
2.65244 9.80414 33.7199
2.46137 9.35016 35.7644
2.6848 9.84789 36.2895
2.63965 8.56249 32.0633
2.47397 9.48003 35.4826
2.6318 8.9422 30.8855
2.27253 8.82949 34.5512
2.59362 9.22177 33.9491
2.56715 9.21294 34.1593
2.52641 9.55423 33.0861
2.42483 9.09574 36.0995
2.61156 9.07592 31.7648
2.32125 8.65698 34.7567
2.56212 8.19128 31.9387
2.45409 8.85429 31.7828
2.42322 8.93605 35.7889
2.72053 9.73264 34.0752
2.48456 8.6836 31.9678
2.44125 9.74135 35.1921
2.56995 9.12769 34.3377
2.54403 9.18945 32.9226
2.36401 8.58809 34.9875
2.62998 9.575 32.3436
2.30827 8.43172 34.5864
2.59034 9.25499 32.5749
2.37626 8.89444 32.9042
2.37012 9.09842 33.2191
2.35071 8.28115 32.0874
2.37296 8.59505 33.1333
2.48918 9.00462 32.1181
2.3155 8.45515 33.614
2.47427 8.84368 31.9341
2.31851 8.89314 33.4439
2.42471 9.06935 34.6096
2.4784 8.92826 33.7574
2.41514 8.81708 34.2965
2.51447 9.04585 33.5266
2.52096 9.27228 32.5337
2.38219 9.52197 33.7295
2.30389 8.00653 31.7894
2.3321 8.32196 32.4264
2.35435 8.71961 33.63
2.51307 9.27933 32.4779
2.27953 8.59971 33.7189
2.47129 9.22015 32.0836
2.26019 9.01902 35.8431
2.52485 9.12638 34.2821
2.41794 8.35149 31.4726
2.28792 8.28929 30.5431
2.18304 8.41484 31.1782
2.1583 7.55049 29.4495
2.13008 8.40073 32.722
2.3536 8.89209 33.463
2.30841 8.1777 34.04
2.45535 9.00802 32.0174
2.28594 8.57422 31.8743
2.25312 8.78339 33.2742
2.30298 9.06502 35.7365
2.53065 9.0646 32.7072
2.30887 8.75085 32.9676
2.28992 8.34545 32.8195
2.30472 8.32076 33.021
2.3819 9.17289 33.5488
2.30804 8.55286 34.2184
2.42129 8.88873 32.2611
2.28276 9.18884 36.7326
2.51028 8.67003 31.7054
2.21733 8.10377 33.2823
2.39559 9.18461 32.8127
2.23919 7.98429 31.6313
2.24379 8.20963 31.8099
2.29321 8.85514 34.7783
2.41701 8.60109 32.7726
2.32459 9.07648 33.7335
2.2993 8.45576 32.8757
2.27279 8.71226 32.751
2.29039 9.10399 34.3021
2.31088 8.09877 32.7338
2.33201 9.23812 34.7635
2.41695 9.17542 32.9924
2.26539 8.85894 34.0323
2.35256 9.16037 36.4858
2.51527 8.67909 32.0704
2.24597 9.08458 36.5233
2.49457 9.0255 33.7383
2.30797 8.53907 31.8602
2.22178 8.77612 33.9427
2.27345 8.07956 33.4633
2.39279 9.52361 33.9094
2.28545 8.6086 33.8258
2.30811 8.25516 31.3919
2.18414 8.70718 33.8395
2.25364 8.01171 30.2678
2.09559 8.40341 31.5524
2.14332 7.65598 31.6737
2.17986 7.90056 30.752
2.12299 8.07653 32.5647
2.2487 8.58982 33.7799
2.31798 9.13856 33.9975
2.33595 9.30728 35.8095
2.47516 9.65601 33.5956
2.18759 8.00731 32.7112
2.24798 8.52021 33.5038
2.22704 8.12496 30.7182
2.05213 7.60848 29.0266
1.98886 7.54783 32.0877
2.1957 8.39888 32.6467
2.297 9.20257 31.9418
2.08333 7.48903 30.0088
2.01868 8.02288 31.5864
2.10153 7.59293 30.9089
2.11627 7.6523 30.955
2.13482 8.35121 32.3825
2.15612 8.26275 29.851
1.97182 7.71596 31.4712
2.14483 7.44368 30.1647
2.05128 7.7137 31.7572
2.21944 8.78578 30.7489
2.02694 7.71953 29.935
2.01951 7.309 29.2287
2.01981 8.21257 31.1359
2.05301 7.87879 29.6896
2.02731 8.32933 33.5633
2.27365 8.2812 31.2394
2.07524 7.63189 31.0541
2.0873 7.8735 31.4586
2.14791 8.33175 31.2698
2.09097 7.72442 29.9093
1.97153 7.80513 29.7376
1.98895 7.76961 30.7044
2.03681 7.49444 30.2624
2.01696 7.34359 29.5226
2.01144 7.92624 31.343
2.08912 7.74528 29.1739
1.95733 8.2322 32.8095
2.19484 8.41544 30.6136
1.97369 7.91522 33.8277
2.22833 8.16522 31.1561
2.08987 7.89664 32.5631
2.18625 8.39367 30.5456
1.98618 7.83817 29.3327
1.92292 7.54958 31.3505
2.08988 8.26799 31.6974
2.06181 7.59763 30.4084
2.01216 7.51426 29.9796
1.97959 7.7975 32.1906
2.11877 7.98941 30.972
2.04428 7.85644 32.0309
2.14368 8.33979 31.1425
2.04632 7.56567 31.2298
2.05039 7.65892 29.3791
1.92032 7.3387 30.2931
2.00592 7.72885 29.4137
1.9688 7.95651 30.7881
2.03869 7.93885 31.2015
2.03523 6.91491 28.0608
1.8775 7.56918 31.7643
2.10929 7.99447 29.3907
1.93079 7.88558 31.1594
2.03678 8.3582 32.0439
2.04533 7.68711 31.8277
2.08234 7.95688 31.9095
2.10798 8.06967 30.944
2.05667 7.65111 26.8761
1.76422 7.34637 30.8314
2.01001 7.7042 30.3514
2.02757 7.54211 30.8134
2.03166 8.25083 32.2955
2.10607 7.98717 31.1222
2.04263 7.40701 27.8434
1.82695 7.29632 30.5916
2.00842 7.73218 32.8021
2.19253 8.62897 31.6485
2.02213 8.08097 30.6871
2.00204 7.22341 30.045
1.95564 7.80491 29.5753
1.90871 8.29624 33.4459
2.15906 7.13611 29.2297
1.94783 7.70552 30.5463
1.9787 8.6325 31.8985
2.04104 7.35246 30.5883
2.00275 7.72286 32.2378
2.10787 7.94622 31.3869
2.0481 7.71807 31.1432
2.06279 7.65862 30.8936
2.02312 8.13724 31.8551
2.07805 8.36378 32.6675
2.11642 8.5366 33.2641
2.1961 7.883 31.7192
2.06647 7.73941 32.229
2.06907 7.97951 31.4322
2.03093 8.01527 31.4487
2.02728 7.76153 29.2332
1.92312 7.8164 32.2359
2.08755 7.9634 32.0908
2.05095 8.12983 30.8641
1.98641 7.47329 31.9249
2.06931 7.84549 29.8769
1.95477 7.51069 28.514
1.84914 7.22934 30.5696
1.96792 7.70865 30.4297
1.99504 7.83325 28.3894
1.82814 7.32836 31.0668
2.03618 7.98616 31.6266
2.04726 7.88735 32.8925
2.13348 7.82195 29.4218
1.92553 7.55415 31.4078
2.0383 7.90533 30.533
1.96567 7.63891 29.3662
1.92265 7.64171 30.4864
1.9605 7.36457 29.3654
1.90642 7.55458 30.6822
2.03334 8.22063 32.4514
2.04708 7.59294 29.6719
1.92893 7.66744 30.2647
1.94864 7.85342 31.8263
2.07061 7.8133 31.3621
2.03323 7.85046 31.9168
2.06593 7.87387 31.1599
2.00645 7.86938 31.596
2.03211 7.50552 31.9763
2.06953 7.87396 29.6281
1.92723 7.79313 31.8374
2.05258 7.65132 29.2623
1.88549 7.67555 30.4539
1.95208 7.9653 31.7417
2.03841 7.94213 30.4328
1.92709 7.65258 30.9534
1.98005 7.55716 31.4037
1.9931 7.98947 31.3477
2.00872 7.06458 29.8758
1.91174 8.49409 31.3669
2.00945 7.68903 31.7246
2.05314 8.00964 32.3051
2.08004 8.13365 31.8825
2.04341 7.33441 30.2671
1.99416 7.71051 29.3678
1.89444 7.8729 30.9545
1.99597 7.46712 29.4794
1.91369 8.2257 34.1811
2.23103 8.10943 32.2431
2.07293 8.11612 31.2305
2.02846 8.12529 32.3165
2.05441 7.39181 31.1795
1.99961 8.22939 31.6648
2.02539 7.25329 28.6935
1.84711 7.37133 31.0495
2.0292 8.28841 30.7378
1.95482 7.62493 32.3109
2.06849 8.45085 31.2965
2.00759 7.48248 31.9529
2.07546 7.74002 31.6866
2.04295 7.88478 31.8736
2.07008 8.02864 29.0174
1.88837 7.72047 32.0872
2.03554 7.67077 31.0361
1.99667 7.57885 31.8206
2.02819 8.54887 32.3535
2.06466 7.50649 28.4199
1.86494 0 0