# pn-170911/RbIIR-av-USN7-1280-1959.psd
# Power spectrum* (dif=0,1,2) (really just |FT|^2)
# NOTE: only the first half! (symmetric)
# weeks: 1280-1959
# 6690 clock-days, 3488 excluded
# PSD: 1441
517.281 0.0807896 0.0527597
30401.8 0.669364 0.108218
128588 2.65911 0.108348
19236.9 0.684879 0.107895
40297.7 2.97327 0.110553
6536.17 0.598382 0.107498
5476.3 0.738137 0.10799
3389.61 0.580811 0.106284
3415.27 0.860635 0.110555
2007.04 0.592995 0.106658
1786.06 0.68301 0.108839
1415.99 0.624853 0.10837
1362.25 0.723558 0.109051
1098.02 0.678812 0.10718
1038.02 0.776331 0.107716
898.753 0.754703 0.107504
881.813 0.889179 0.111987
749.309 0.84206 0.108107
733.922 0.916644 0.110214
638.08 0.905767 0.107921
634.745 1.0163 0.111166
576.697 1.01792 0.109399
585.236 1.13655 0.113897
519.648 1.12517 0.110614
552.178 1.31962 0.112398
502.298 1.30152 0.110764
506.031 1.42921 0.112831
450.549 1.39778 0.110801
476.627 1.58038 0.115639
443.717 1.56902 0.114902
444.173 1.70033 0.117198
419.244 1.72971 0.11383
423.534 1.89523 0.118973
412.597 1.94853 0.117256
417.619 2.0939 0.122302
419.226 2.23158 0.120473
403.412 2.28668 0.119895
400.128 2.41278 0.125177
392.67 2.4883 0.123417
387.87 2.59278 0.128243
404.65 2.86726 0.130745
392.365 2.93869 0.132116
371.121 2.88613 0.130127
363.679 3.00458 0.132277
372.336 3.21681 0.136931
356.901 3.23208 0.13745
362.413 3.42841 0.140503
357.01 3.59537 0.1462
372.681 3.85349 0.146028
333.811 3.6269 0.149341
349.239 3.92223 0.151758
338.689 3.96209 0.156189
345.329 4.23621 0.163116
354.323 4.46542 0.165891
333.87 4.4373 0.171554
332.143 4.51909 0.171546
319.314 4.50052 0.174591
326.838 4.84458 0.180312
320.388 4.90517 0.182442
317.719 5.05815 0.191928
321.957 5.26566 0.198681
303.045 5.15284 0.200853
315.713 5.53071 0.208493
293.168 5.32588 0.204556
290.082 5.42709 0.215939
286.445 5.54096 0.221192
291.018 5.76164 0.224293
300.36 6.20233 0.238122
280.173 5.92594 0.232375
281.273 6.12937 0.244527
282.772 6.34654 0.2541
284.472 6.6057 0.258125
283.645 6.77793 0.269686
271.682 6.64595 0.276062
257.697 6.49991 0.272707
259.887 6.74127 0.281805
271.024 7.24538 0.301333
270.836 7.38321 0.309174
269.426 7.56956 0.321736
242.785 7.00486 0.31218
246.444 7.21021 0.324882
240.172 7.21922 0.32281
246.646 7.65406 0.35031
248.217 7.88706 0.360312
248.532 8.11847 0.371049
231.303 7.69624 0.364938
235.85 8.01548 0.381759
234.881 8.15052 0.387078
223.334 7.94946 0.39394
220.879 8.10581 0.407571
222.605 8.30808 0.41433
248.932 9.61254 0.467929
224.624 8.72353 0.442572
209.142 8.33543 0.43632
207.291 8.46576 0.456345
210.463 8.84446 0.473391
262.393 11.2858 0.578703
211.243 9.17034 0.500665
201.381 8.94396 0.503806
205.28 9.26754 0.518969
206.224 9.56804 0.560121
197.724 9.2784 0.542296
199.546 9.6198 0.56546
201.506 9.81231 0.585269
189.553 9.51327 0.577229
188.534 9.58214 0.583804
187.765 9.75025 0.611386
197.386 10.5475 0.659175
199.552 10.8289 0.688208
187.166 10.2109 0.659355
180.488 10.077 0.662333
183.256 10.4958 0.702026
176.333 10.1633 0.683818
179.914 10.6841 0.734371
179.385 10.7461 0.746939
183.763 11.3393 0.798924
181.436 11.292 0.795613
167.49 10.6252 0.776822
161.917 10.4126 0.770513
174.344 11.6044 0.860209
179.008 11.9745 0.898981
165.382 11.0878 0.848502
159.706 10.9641 0.854092
159.279 11.2131 0.86465
167.682 12.0136 0.962721
159.206 11.4093 0.919971
161.474 11.9105 0.974271
161.381 12.0013 0.980875
154.268 11.8072 0.994343
163 12.5522 1.06006
150.465 11.7012 1.01518
161.527 13.0163 1.12996
156.861 12.5845 1.114
157.694 12.9539 1.15479
145.381 11.9769 1.07854
147.56 12.5854 1.16078
143.962 12.3151 1.13452
149.994 13.1077 1.22951
146.357 12.87 1.21867
141.829 12.694 1.23727
141.141 12.7699 1.23886
130.965 11.9869 1.19062
129.428 11.9985 1.20987
136.607 12.9453 1.31616
160.591 15.8186 1.62241
138.515 13.151 1.3442
131.474 13.006 1.36741
132.245 13.218 1.41908
138.249 14.2428 1.55112
130.902 13.3332 1.45435
125.433 13.1311 1.45628
130.606 13.8234 1.52909
124.847 13.2802 1.50443
133.03 14.669 1.67597
129.57 14.0872 1.61841
135.414 15.3807 1.82033
133.989 14.9574 1.75143
121.54 13.8451 1.67073
124.698 14.3492 1.74384
119.191 13.8794 1.69874
119.349 14.1446 1.75846
125.914 15.3128 1.93428
120.723 14.4618 1.81184
115.604 14.1396 1.81753
118.117 14.7791 1.93407
117.957 14.7644 1.92002
114.437 14.4965 1.92228
121.675 15.9432 2.14993
128.644 16.9899 2.3083
120.066 15.4825 2.08452
113.485 15.0764 2.09153
109.925 14.8221 2.07906
114.706 15.7793 2.23978
108.782 14.9507 2.14713
115.049 16.3093 2.38384
114.493 16.0426 2.33411
111.812 15.9257 2.32956
108.544 15.7221 2.36549
109.48 16.1773 2.45106
112.686 16.6647 2.53113
110.048 16.4747 2.55333
107.858 16.2471 2.53178
106.599 16.3422 2.56373
103.554 15.8792 2.51236
102.347 16.2207 2.62075
107.663 17.2111 2.80974
108.363 17.0756 2.75332
101.952 16.51 2.74657
101.947 16.6399 2.77806
102.107 16.969 2.86916
98.8035 16.3858 2.79083
101.342 17.4654 3.07822
138.551 23.5251 3.99571
101.75 17.3729 3.03746
95.0461 16.6527 2.99075
98.7471 17.404 3.12647
101.404 17.9155 3.23263
97.158 17.4636 3.18493
93.4841 17.1532 3.21289
97.8224 17.6142 3.25522
93.1441 17.2555 3.2782
93.5464 17.4286 3.32182
93.5626 17.7756 3.43659
95.4363 18.0914 3.48391
96.3202 18.7255 3.70369
96.6156 18.3438 3.57137
93.329 18.399 3.67982
94.7792 18.539 3.70924
89.3894 17.9686 3.6819
90.7095 18.113 3.71415
89.848 18.2313 3.76556
90.6535 18.8744 3.96188
87.7228 18.1058 3.80524
86.1018 17.9757 3.84654
86.3275 18.3092 3.92919
87.4872 19.0693 4.22688
94.9264 19.893 4.24764
85.2574 18.5469 4.07478
84.571 18.5687 4.15015
84.9922 18.8838 4.26941
86.9776 19.6706 4.46577
84.5935 18.9053 4.27689
88.473 20.171 4.66493
86.3498 19.5543 4.49188
82.1307 19.1511 4.5413
85.1884 19.8259 4.6745
81.2545 19.1216 4.57307
83.464 19.7216 4.72226
83.066 20.0807 4.91244
83.0707 19.8175 4.78222
80.0232 19.3398 4.7487
82.631 20.2165 5.00154
80.2607 19.8405 4.98701
82.0477 20.5741 5.20886
78.5363 19.7468 5.03486
77.8009 19.8513 5.1604
81.4226 20.5805 5.26459
75.2979 19.4244 5.11067
75.1681 19.4774 5.13337
75.6445 20.1277 5.45178
79.5415 20.9208 5.54505
76.2279 20.2989 5.46804
73.0196 19.4993 5.2747
74.3995 20.357 5.61174
76.4961 20.9454 5.81008
79.0397 21.6853 5.99943
73.5902 20.5892 5.84602
78.2846 21.5215 5.9694
73.1501 20.8971 6.0255
75.147 21.4351 6.18045
72.9578 20.8466 6.02587
70.5432 20.5189 6.09881
74.9591 21.8798 6.46965
75.5083 21.8309 6.38985
72.5174 21.5092 6.40005
68.8723 20.6789 6.28756
71.9271 21.5547 6.53327
69.0126 20.7345 6.33457
69.7173 21.2115 6.55562
69.5747 21.394 6.67589
69.3555 21.3371 6.63159
69.6226 21.6254 6.8106
69.5355 21.6833 6.88895
67.5286 21.4875 6.96533
75.0241 23.7576 7.56914
69.0094 22.0376 7.08273
63.1521 20.599 6.78092
65.5949 21.3521 7.02776
64.748 21.3912 7.16257
67.6328 22.282 7.41662
65.7049 21.9264 7.42902
66.9153 22.1797 7.4256
63.2182 21.5564 7.43573
66.4143 22.5993 7.8431
64.9719 22.1537 7.6443
64.9477 22.3621 7.86075
67.2159 23.2366 8.08754
65.8791 22.9776 8.10288
64.5112 22.6225 8.02085
61.6222 21.8504 7.87401
61.5935 22.024 7.97442
61.7419 22.301 8.19532
63.4885 23.0096 8.42169
62.8582 22.9165 8.44698
63.3819 23.2986 8.66214
60.5446 22.2765 8.34461
59.6364 22.2111 8.47104
63.4989 23.836 9.20595
86.266 32.3815 12.0607
61.2533 22.8909 8.74071
60.4763 23.1859 9.01601
59.7402 22.9654 8.92032
58.9234 22.8306 9.00204
61.4092 23.8988 9.37718
57.7558 22.6703 9.04633
56.9707 22.4811 8.99616
56.9099 22.4186 9.01845
57.8742 23.1512 9.39288
57.7658 23.237 9.47313
56.146 22.9266 9.53743
58.2388 23.5926 9.65033
57.4133 23.5702 9.79062
56.1361 23.1323 9.65467
56.0929 23.4048 9.85922
55.1015 23.1029 9.80075
55.031 23.2888 9.94555
56.3193 23.789 10.1971
55.3802 23.5792 10.1579
53.46 22.9871 9.99711
54.7086 23.7319 10.403
53.1927 23.0692 10.1938
53.328 23.2783 10.3008
53.9916 23.625 10.4804
53.4488 23.7108 10.6176
53.0476 23.6975 10.7326
53.3024 23.8228 10.739
50.7119 22.8903 10.5461
52.8338 23.9581 10.9718
52.2965 23.7423 10.9859
53.5233 24.569 11.4366
50.4808 23.2778 10.9118
51.0663 23.6455 11.1282
51.0392 23.7824 11.2304
52.5495 24.7123 11.6377
51.1062 24.3876 11.7359
49.6701 23.6206 11.3911
50.4608 24.0386 11.6137
48.3679 23.295 11.3748
49.5148 24.1033 11.8898
48.8968 23.7589 11.7028
49.4287 24.1814 11.9368
48.4933 23.8165 11.9054
48.7094 24.0407 12.0337
47.1937 23.3619 11.7488
46.8794 23.4496 11.8883
48.1147 24.1691 12.3059
48.2668 24.4442 12.5429
47.8477 24.2556 12.4504
46.9079 24.0209 12.4521
45.3984 23.6607 12.5289
47.8321 24.6446 12.8165
47.0132 24.5635 12.9547
46.017 24.198 12.9018
46.7564 24.6372 13.0959
45.2733 24.181 13.0676
46.1885 24.3775 13.1183
45.2208 24.2141 13.1401
45.6463 24.5606 13.3381
44.3921 24.1751 13.336
45.7122 24.905 13.7245
44.633 24.3753 13.4582
43.297 23.7583 13.2251
44.431 24.6183 13.8338
43.7185 24.2597 13.6804
44.271 24.8353 14.0351
43.465 24.5457 14.0418
43.6883 24.6262 14.076
41.9804 23.845 13.7833
43.1528 24.629 14.2389
42.1091 24.3591 14.2859
44.2173 25.4017 14.7742
41.5637 24.0653 14.1559
41.1885 24.2829 14.5289
42.277 24.559 14.4766
41.4904 24.5217 14.7723
42.2763 24.8885 14.9199
41.4486 24.6916 14.9413
40.2528 23.8805 14.4506
40.5311 24.3853 14.8174
39.6791 24.2624 14.9883
40.1157 24.3083 14.9094
40.851 24.9714 15.4422
39.7964 24.4643 15.2126
41.0183 25.1696 15.6855
40.8599 25.6007 16.138
40.6473 25.2793 16.0161
40.334 25.1848 15.886
39.4892 24.985 15.98
38.4608 24.4991 15.8202
38.955 24.7354 15.9043
38.633 24.883 16.2951
38.8958 24.9595 16.3119
38.3897 24.8897 16.4795
38.766 25.1228 16.9256
52.9314 34.1479 21.4567
38.9111 25.7762 17.3149
38.2501 25.2051 16.8785
38.2928 25.3807 17.0988
36.9789 24.529 16.4886
36.2846 24.2824 16.5303
36.7118 24.6395 16.8352
37.8441 25.3288 17.1574
36.6213 24.7381 16.9973
37.6237 25.9085 18.0088
37.0695 25.1895 17.514
36.7915 24.9806 17.3322
37.0989 25.6748 17.9869
37.1225 25.9075 18.342
36.819 25.5211 17.987
36.0737 25.1562 17.8375
35.7559 24.9851 17.6487
35.1172 24.9806 18.0408
35.8662 25.5267 18.3858
35.1196 25.105 18.2866
35.7654 25.506 18.3893
34.9605 25.1007 18.3062
34.8571 25.2235 18.5167
34.4501 24.9496 18.5001
34.2281 24.896 18.3956
34.4165 25.4346 18.9938
34.6777 25.4968 19.003
34.1998 25.2853 18.9538
33.9903 25.173 18.9815
33.4004 24.9178 18.8936
33.0496 24.8595 18.9811
33.7535 25.5141 19.4883
33.1428 24.9887 19.1929
33.1909 25.465 19.7948
33.3745 25.4905 19.7699
32.9931 25.1356 19.5242
32.2964 24.7534 19.3786
33.1169 25.5505 19.9337
31.8357 24.6064 19.443
31.9436 24.8893 19.8129
32.5162 25.2011 19.7984
32.0579 25.5998 20.6128
32.2774 25.393 20.2901
32.5381 25.9242 20.8244
32.0874 25.4854 20.6472
31.6643 25.4301 20.7139
31.4497 25.1019 20.2842
30.2492 24.5436 20.0891
30.3145 24.6776 20.4638
30.482 24.8237 20.5883
30.9516 25.3178 21.0913
30.6774 25.1398 20.9809
30.0735 24.7065 20.8229
31.2616 25.7243 21.483
30.5931 25.4024 21.5356
30.3559 25.1805 21.2612
29.6302 24.7753 21.1398
29.9326 25.1805 21.534
29.616 25.0192 21.5178
29.442 24.984 21.5779
29.9005 25.3502 21.8396
29.9251 25.6757 22.2866
29.1131 25.0248 21.7726
28.8116 25.0452 22.071
28.6712 24.8254 21.8755
28.8847 25.341 22.3918
28.6203 25.1436 22.4731
28.2937 24.5084 21.9339
29.7525 26.2353 23.3215
28.6918 25.2888 22.7162
28.1806 25.0291 22.5711
28.3103 25.1326 22.7803
28.9058 25.8447 23.5422
28.3498 25.4011 23.0037
27.7151 25.271 23.4269
27.9802 25.2367 23.0918
27.7817 25.4992 23.6845
27.2942 24.8412 23.1461
26.7095 24.4304 22.8575
27.4877 25.0622 23.2893
27.1171 25.2104 23.7694
26.8755 25.0478 23.7195
27.3745 25.4759 24.1213
27.2986 25.4545 24.1731
27.0649 25.4902 24.3521
26.6889 25.0599 24.0206
26.2042 24.4899 23.5008
26.5961 25.3942 24.4713
26.6128 25.3087 24.4778
26.2972 25.3297 24.6521
25.6948 24.6658 24.1445
26.316 25.4898 25.162
26.1625 25.0183 24.5846
26.0781 25.2285 24.9944
26.384 25.5834 25.3172
25.0873 24.8519 26.0736
35.9824 34.8255 32.3712
26.1381 25.9666 26.2914
25.4916 25.3932 25.757
25.0493 24.704 24.9601
25.2115 25.2775 25.465
24.0326 24.2523 25.0582
24.5944 24.5292 24.9034
24.2537 24.5694 25.3229
24.5866 24.724 25.4829
24.4998 24.7777 25.7258
24.9287 25.1519 25.8351
24.1129 24.8284 25.945
24.4046 24.8973 25.6661
23.4195 24.34 25.7643
23.914 24.6046 25.8376
23.8551 24.8601 26.4016
24.2951 25.2269 26.7039
23.4611 24.2199 25.6081
23.2273 24.7044 26.5017
23.7368 24.7879 26.3374
23.0502 24.2924 26.2319
23.243 24.5374 26.4134
23.3156 24.8931 26.8904
22.6218 24.0212 26.1329
22.7298 24.3768 26.6194
22.8032 24.7564 27.3683
22.5492 24.2785 26.6608
22.8128 24.7149 27.2868
22.9412 24.9847 27.5672
22.5858 24.4883 27.1341
22.6137 24.7352 27.5153
22.4846 24.6411 27.5059
22.2122 24.5083 27.5502
22.4033 24.5648 27.4881
22.0823 24.4427 27.487
21.9809 24.5881 28.0298
22.0395 24.4701 27.9031
22.2339 24.7756 28.0194
21.696 24.6444 28.402
21.8023 24.6238 28.3607
21.5727 24.3807 28.1964
21.6981 24.4769 28.1553
21.6043 24.8178 28.7512
21.098 24.156 28.1281
20.91 24.0291 28.1196
21.0569 24.3134 28.685
21.1467 24.1352 28.2304
20.7231 24.0122 28.3596
20.4794 23.8702 28.5149
20.5497 23.9491 28.5156
20.1652 23.4629 28.0109
20.2023 23.8507 28.9354
20.8108 24.3191 29.014
20.08 23.5734 28.3304
20.3606 24.2948 29.5257
19.9794 23.6983 29.0211
19.9741 23.5516 28.627
19.6604 23.4197 28.5098
19.9759 24.0746 29.368
19.7639 23.7407 29.1317
19.9556 24.0128 29.4858
20.0758 24.4608 30.2399
19.3286 23.291 28.9702
19.8211 24.1442 29.9221
19.615 23.9757 29.8046
19.6319 24.3236 30.7122
19.5564 23.8765 29.7122
19.0659 23.6521 29.8857
19.2261 24.0666 30.6377
19.1364 23.7032 30.2931
19.3321 23.8235 29.9081
19.0239 24.236 31.2047
18.6542 23.4044 30.1572
19.3562 24.2467 30.7989
18.689 23.8411 30.8927
18.7219 23.6995 30.9399
18.6338 23.6631 30.8531
18.6912 23.8069 30.9826
18.6155 23.7894 31.142
18.7898 23.9061 30.9555
18.391 23.7925 31.293
18.2383 23.6168 31.2793
18.056 23.4874 31.266
18.568 24.2251 31.9601
18.181 23.7084 31.8232
18.3788 23.9696 31.9591
18.0317 23.6664 31.7803
18.1425 23.7718 31.8397
17.7013 23.4082 31.7721
17.8509 23.3639 31.3813
17.4981 23.1298 31.564
17.7982 23.815 32.3906
17.7107 23.3974 31.7951
17.5906 23.7966 32.7342
17.8454 24.1998 33.4864
17.6817 24.7243 37.5477
25.2782 32.7507 40.7017
17.5387 23.7517 33.2012
17.5996 23.9614 33.1624
17.3402 23.7115 33.1568
17.4386 23.698 32.9521
17.064 23.3541 32.5861
16.7403 23.2926 33.2521
17.2529 23.357 32.7068
16.8444 23.3243 33.0455
16.8956 23.2545 32.9138
16.7659 23.2358 32.8977
16.5236 23.1209 33.1146
16.5135 22.8738 32.8351
16.873 23.4502 32.9589
16.2676 23.1393 33.61
16.4817 23.1511 33.4338
16.2007 22.8925 33.3278
16.2665 22.9934 33.2291
16.0845 23.0034 33.5154
15.7993 22.6407 33.435
16.2304 23.1283 33.9735
15.813 22.4476 32.6903
15.6433 22.5559 33.3964
15.9371 22.9796 34.0151
15.9123 22.909 33.9506
15.9651 23.0059 33.7164
15.4778 22.6155 33.9985
15.9142 22.9192 33.6989
15.2738 22.5934 34.2747
15.9329 23.2885 34.7061
15.6889 23.0342 34.4907
15.2922 22.7974 34.7244
15.5138 22.7372 34.4373
15.0653 22.1336 33.7225
15.5383 23.1819 35.3159
15.3033 22.9182 35.2479
15.5169 23.3194 35.8245
15.4403 22.6243 34.3275
14.9789 22.6177 35.1081
15.0348 22.5271 34.7001
15.0533 22.8684 35.2283
14.7384 22.2218 34.3588
14.5656 22.3111 35.0391
14.7408 22.4832 35.256
14.7058 22.274 34.8695
14.4796 22.2639 35.0986
14.5787 22.2883 35.1023
14.524 22.3528 35.6452
15.0349 23.0641 35.9114
14.6418 22.6545 35.8499
14.3898 22.0463 34.8081
14.1159 22.294 35.7908
14.2116 22.3243 36.1358
14.8012 22.8446 36.2121
14.2515 22.2874 35.7407
14.1863 22.2848 35.675
13.7815 21.8832 35.7992
14.1602 22.1176 35.5347
13.8235 22.056 36.0953
13.8958 22.0034 35.9254
14.0898 22.4814 36.6564
14.0303 22.3737 36.525
13.9133 22.0421 35.6677
13.5975 21.9062 36.0714
13.3527 21.5685 35.7903
13.6377 22.0761 36.6284
13.6992 22.297 36.9835
13.7249 22.5195 37.7227
13.8926 22.3891 37.1451
13.3709 21.4767 35.9464
13.3781 21.9482 36.6095
13.3579 21.8899 36.7724
13.2612 21.8394 36.8283
13.1763 21.5897 36.4569
13.2036 21.859 37.082
13.177 21.791 36.8553
12.8214 21.3638 37.2398
13.4047 21.8364 36.5531
12.7398 21.387 36.913
12.9697 21.439 36.6183
12.9656 21.8243 37.6156
12.8878 21.5321 37.1801
12.8512 21.6471 37.5532
12.7465 21.4921 37.338
12.6419 21.1191 36.6153
12.6706 21.5825 37.437
12.8396 21.9416 38.1738
12.6222 21.299 37.3813
12.4773 21.0552 36.7435
12.3117 21.1248 37.4126
12.5148 21.5137 37.9312
12.7723 22.0274 38.8458
12.3569 21.2007 37.7731
12.3017 21.3658 38.2482
12.5233 21.7683 38.9315
11.9549 21.6767 44.4554
18.3712 30.3448 46.982
12.1626 21.4745 38.5498
12.0322 21.116 37.857
11.8403 20.7867 37.5268
12.1491 21.613 38.9674
12.0818 21.3271 38.5013
11.8187 20.8617 38.2356
11.7525 20.5819 37.4427
11.7909 21.0482 38.1838
11.7136 20.7993 37.9622
11.6368 20.8117 38.3702
11.7653 20.911 38.5999
12.0939 21.577 39.0339
11.5273 20.7472 38.2776
11.3573 20.5588 38.6278
11.7564 21.0619 38.8239
11.3524 20.5616 38.4822
11.4294 20.5679 38.2057
11.4931 20.9443 39.2408
11.5402 20.8632 38.75
11.211 20.6385 39.0859
11.2579 20.5144 38.9194
11.3021 20.3594 38.2319
11.1737 20.3889 38.4703
11.2678 20.6787 38.7908
11.0172 20.3882 38.6276
11.1236 20.5486 38.9973
11.0737 20.744 39.9311
11.3591 20.7908 38.9569
11.2128 22.4515 46.0238
12.4825 21.5729 39.8423
11.2834 21.1393 40.0436
10.9904 20.5014 39.2877
10.9612 20.752 40.4105
10.8306 20.3172 39.7658
11.0404 20.6338 39.4786
10.6082 20.0291 39.3755
11.0485 20.853 40.2401
10.6555 20.1361 39.7512
10.9251 20.7081 40.273
10.7491 20.2432 39.3283
10.4545 19.9824 39.5173
10.5994 20.1402 39.7452
10.5437 19.8561 39.0158
10.4168 20.0055 39.4104
10.2273 19.5613 39.0737
10.2331 19.7243 39.221
10.3708 20.2979 41.3889
10.9263 20.7413 40.4667
10.2162 19.6367 38.9766
10.1321 19.6417 39.2093
10.1449 19.7024 39.4503
10.022 19.4792 38.8251
9.97042 19.7446 39.9218
9.99809 19.9157 40.7475
10.29 20.1046 40.4924
10.0531 19.71 39.8228
9.99106 19.9253 40.6546
10.0012 19.8296 41.344
10.0413 19.4609 40.2032
10.1345 19.8034 40.1618
9.98606 19.9132 40.5904
9.76049 19.4947 40.5797
10.1145 20.002 40.859
9.76643 19.4292 40.0469
9.73567 19.398 39.777
9.41743 19.1463 40.312
9.58161 19.265 40.8393
10.0247 20.2358 41.5209
9.45673 19.0978 40.3712
9.65949 19.4406 40.3732
9.55374 19.4135 40.921
9.70303 19.8109 41.5835
9.40455 18.9711 39.9697
9.33003 19.1502 40.7882
9.60019 19.6268 41.5311
9.54682 19.2493 40.2048
9.30125 19.012 40.1588
9.28207 19.1764 40.6814
9.3377 19.3223 41.0366
9.29679 19.4771 41.7188
9.28405 19.2214 41.1076
9.12789 19.0555 41.2005
9.20761 18.997 40.9217
9.19102 19.2126 41.5137
9.21071 19.1421 41.1108
8.97378 18.5781 40.3952
9.06534 18.8903 41.0112
9.08274 18.9478 40.8054
8.94051 19.0955 41.4227
8.87588 18.5782 41.1301
9.08137 19.1805 41.5743
8.94003 18.948 41.9374
9.06315 19.22 42.2375
8.77406 18.6007 41.5264
8.71525 19.0985 49.7215
13.246 26.7853 49.4507
8.86159 19.0258 41.5981
8.54704 18.3092 40.5102
8.50884 18.4591 40.78
8.35348 18.189 41.0193
8.63019 18.6533 41.6115
8.58331 18.3835 41.0163
8.55127 18.7159 42.0141
8.61817 18.5064 40.8997
8.35361 18.3069 41.6613
8.56861 18.6029 41.7696
8.61886 18.7057 42.1031
8.3973 18.2728 41.5526
8.36771 17.8886 40.0968
8.30686 18.6327 42.7382
8.57279 18.467 41.432
8.21359 18.0799 41.2682
8.26526 18.2402 41.6585
8.30564 18.2386 41.4904
8.23352 18.4471 42.4977
8.31427 18.0919 41.7141
8.26663 18.087 41.505
8.20111 18.1684 41.6382
8.15211 17.9219 41.3637
8.15317 18.1757 41.9342
8.05665 17.957 41.3068
8.00418 17.9079 41.7253
8.01891 17.6611 40.6308
8.01744 18.1635 41.7591
7.874 17.7861 41.7313
7.93654 17.8088 41.9913
7.89378 17.6194 41.7423
7.95647 17.9145 42.2294
8.21451 18.2877 41.8633
7.68387 17.5523 41.6899
7.99132 18.0547 41.9324
7.69841 17.5119 41.4762
7.93719 18.1351 42.6622
7.74298 17.7199 42.3383
7.83765 17.9201 42.5069
7.81369 17.8259 42.7397
7.81085 17.4776 41.1568
7.54997 17.4611 41.7284
7.77078 18.1815 43.0821
7.74375 17.7712 42.6051
7.66921 17.7061 42.2466
7.59264 17.3975 41.8369
7.61532 17.8094 43.2456
7.61674 17.5823 42.1449
7.40611 17.3071 42.3114
7.61729 17.8375 42.9228
7.32828 16.7687 41.0696
7.47833 17.4752 42.4008
7.43685 17.2525 41.7939
7.37507 17.397 42.5647
7.50211 17.5289 42.3174
7.36675 17.3313 42.6733
7.47063 17.5358 42.7852
7.39794 17.4605 42.8942
7.36068 17.4543 42.9593
7.43631 17.3634 42.3004
7.18612 17.2128 43.2969
7.33137 17.3463 42.6453
7.32305 17.7249 43.8961
7.3549 17.4127 43.0116
7.15009 16.9377 42.1036
7.15864 17.2315 42.592
7.13942 17.4202 43.9648
7.30073 17.261 43.131
7.1403 17.1002 42.5231
7.04212 16.9154 42.9537
7.24712 17.3458 43.1304
7.13502 17.3041 43.5576
7.18349 17.2789 43.2794
7.12382 17.2006 42.7055
6.91046 17.0032 43.095
6.99578 16.9606 43.1476
7.00188 16.9671 43.3539
6.94823 16.7748 42.6892
7.05836 17.1858 43.4776
6.89599 16.7251 42.5833
6.83836 16.7347 42.5081
6.86411 16.9757 43.2586
6.93049 17.1833 43.9416
6.90142 17.0151 43.9954
6.98993 17.245 44.0604
6.85585 16.8522 43.1205
6.7638 16.8863 44.0602
6.92358 17.0913 43.7874
6.84111 17.1222 43.8648
6.79271 17.1001 44.3512
6.78824 16.8681 43.698
6.63813 16.3841 42.847
6.71969 16.9486 44.4377
6.81268 17.1351 45.3543
6.83876 17.9784 56.3967
9.98223 23.2218 49.1932
6.50544 16.6995 44.0388
6.6472 17.0346 44.5897
6.54979 16.5144 44.2901
6.73884 16.581 43.0436
6.55746 16.8097 44.5043
6.59606 16.7006 43.9571
6.56306 16.5799 43.9909
6.55265 16.7293 44.361
6.61445 16.9451 45.1508
6.60595 16.5094 43.686
6.47443 16.419 43.3818
6.42371 16.5483 43.9748
6.49343 16.859 45.0449
6.39662 16.0931 43.3474
6.40939 16.383 43.9234
6.49982 16.6986 44.0076
6.29428 16.3482 43.9692
6.31478 16.2022 43.971
6.41344 16.3721 43.7034
6.24875 16.0849 43.4082
6.26843 16.1755 43.7263
6.27288 16.4321 44.6368
6.34318 16.1468 43.3508
6.22793 16.1713 43.7797
6.22701 16.2442 44.117
6.32678 16.4015 43.7556
6.12604 16.1484 43.8063
6.08003 15.993 44.0356
6.10436 15.8277 43.0633
6.0225 15.7616 43.3384
6.12284 16.2101 44.8189
6.15576 16.0987 44.2047
6.17656 16.398 44.9872
6.16825 15.8258 42.9702
5.94438 15.8343 43.6116
5.96996 15.7714 43.6144
5.98456 15.957 43.9375
6.0137 16.0267 44.5277
6.00777 15.6534 43.1166
5.92113 15.6555 43.5475
5.92471 15.78 43.7879
5.90016 15.7423 43.8069
5.86279 15.7697 44.6663
6.00951 15.8311 44.6738
6.04732 15.9606 44.1109
5.85084 15.5591 43.0829
5.7373 15.5039 43.5496
5.7482 15.3061 43.483
5.86193 15.6603 43.7067
5.79229 15.785 44.1318
5.76355 15.7114 44.467
5.7209 15.2398 43.3807
5.73104 15.4233 43.4422
5.66625 15.5601 44.765
5.88993 15.865 44.6822
5.72279 15.4032 44.1392
5.75051 15.1851 43.2376
5.72864 15.6592 44.2283
5.80592 15.8647 44.4877
5.65089 15.3781 44.0466
5.67552 15.5852 44.8192
5.69203 15.3145 43.4549
5.56812 15.1929 43.8452
5.67619 15.5393 44.0865
5.58256 15.438 44.1885
5.58813 15.6495 44.9842
5.62338 15.2423 43.8504
5.56727 15.5632 44.9633
5.61481 15.1639 43.687
5.51225 15.2497 43.8519
5.49808 15.2092 44.0509
5.44515 15.4173 45.0851
5.57539 15.3577 44.6985
5.51066 15.2687 44.6407
5.5379 15.1624 44.2472
5.475 15.1118 44.4005
5.49382 15.4576 45.3416
5.51961 15.331 44.8133
5.41754 15.0955 44.5177
5.42879 15.005 44.0794
5.38249 15.0825 44.2238
5.42633 15.1516 43.9652
5.31721 15.097 44.616
5.3441 14.897 44.3583
5.43814 15.3574 44.9877
5.35965 14.9617 44.0853
5.33239 15.0691 44.0933
5.21353 14.8997 44.7497
5.35136 14.8327 43.4174
5.18593 14.8199 44.3408
5.25492 14.5648 43.7127
5.23525 15.0235 44.2353
5.17101 14.9593 45.1545
5.15513 14.5193 44.3089
5.26331 16.4494 62.5088
8.21701 21.168 48.8996
5.10066 15.0022 44.7063
5.1318 15.0859 45.7019
5.26926 14.6532 43.8867
5.15086 14.8294 44.3366
5.17213 14.8591 43.975
5.07732 14.7365 44.6976
5.06614 14.5037 43.4192
5.02512 14.5337 44.435
5.11766 14.7365 44.1559
5.04535 14.4906 44.2344
5.07953 14.6696 45.1026
5.15884 14.8831 45.0628
5.12112 14.6305 44.45
5.08831 14.6683 44.3504
5.0837 14.7045 44.0287
4.94281 14.3572 44.3356
5.00808 14.6266 44.4565
4.95051 14.3446 44.416
5.04084 14.6131 44.4531
4.92837 14.2891 43.3497
4.83421 14.1521 43.6662
4.87878 14.2419 44.4234
5.00734 14.7203 44.7881
4.94703 14.3404 43.8689
4.91882 14.3666 44.2708
4.85531 14.2546 45.1898
4.98411 14.2852 43.8512
4.90102 14.6419 45.0961
4.97787 14.7381 45.1623
4.89377 14.3047 44.2289
4.85231 14.5086 45.162
4.89666 14.2293 44.7028
4.86467 14.1802 43.9313
4.84122 14.322 44.5262
4.8284 14.1119 43.9188
4.80575 14.1079 43.884
4.77917 14.2075 43.617
4.64293 13.9138 43.5949
4.68915 14.0413 44.0625
4.67826 14.0958 44.8213
4.71882 13.929 43.9522
4.68726 14.0585 44.2525
4.73656 14.2529 44.8477
4.74966 14.172 44.6721
4.72696 14.0477 43.9025
4.60048 13.655 43.1535
4.57641 13.7497 44.0858
4.63383 13.7319 43.5168
4.6229 13.97 44.5608
4.70507 13.8365 43.6093
4.65887 14.0351 44.6325
4.71433 13.9639 44.1644
4.65983 14.1723 44.8313
4.64001 14.0014 44.0533
4.52883 13.6552 43.4536
4.52876 13.9159 44.4058
4.51479 13.8252 45.1454
4.59629 13.6657 43.6285
4.51925 13.7435 43.8965
4.49231 13.7756 44.5622
4.54972 13.7604 44.2777
4.49911 13.6698 44.6943
4.55387 13.5155 43.9196
4.55208 13.8222 43.5836
4.4229 13.5785 44.098
4.51594 13.5553 43.8739
4.47576 13.6928 43.9887
4.46326 13.6078 44.026
4.39382 13.3599 43.7405
4.40349 13.4263 43.7667
4.45799 13.7994 44.1774
4.42051 13.3907 43.6425
4.39944 13.552 44.0557
4.43614 13.5629 43.6732
4.32691 13.3721 43.4807
4.30986 13.4061 43.6411
4.31671 13.4047 44.4209
4.42138 13.208 43.0004
4.31381 13.2677 43.021
4.31155 13.2359 42.8779
4.22797 13.2004 43.4945
4.27832 13.3141 44.2152
4.33532 13.2348 42.7411
4.22122 13.371 44.2243
4.30977 13.1062 43.1502
4.23016 13.2131 43.1396
4.18967 12.9051 43.1727
4.27923 13.2085 43.2829
4.16912 13.0423 43.6393
4.29702 13.2814 43.6136
4.22619 13.1069 43.382
4.23934 13.2206 43.2482
4.15842 13.2504 44.4808
4.25088 13.5742 44.592
4.13636 14.8973 66.7357
6.81244 18.1939 45.5649
4.14513 13.7631 45.0408
4.1749 13.0776 43.5263
4.16241 13.0713 43.0646
4.09902 13.0953 44.3477
4.18583 13.1078 44.0328
4.1594 12.9641 42.2104
4.03656 12.8219 43.1457
4.09078 13.0185 43.699
4.11281 12.9112 43.279
4.09298 12.9805 43.9315
4.09292 12.6565 41.9026
3.96049 12.7518 43.3397
4.09148 12.9515 43.2216
3.99722 12.7511 42.718
3.97182 12.6312 43.2637
4.03631 12.8727 43.3017
3.95623 12.4278 43.0342
4.05554 12.8617 42.8929
3.94871 12.7705 43.1689
4.0121 12.6715 42.5117
3.93912 12.614 42.8221
3.97645 13.047 44.2851
4.00105 12.6168 43.4937
3.99476 12.6129 43.5131
4.03963 12.9624 43.5366
3.96762 12.7077 43.2019
3.94559 12.7031 43.3367
3.94231 12.5784 43.5826
3.97483 12.8258 43.7488
3.97317 12.8687 43.7929
3.97051 12.8529 44.1832
3.99867 12.8135 44.0134
3.99634 12.8349 43.415
3.9016 12.528 42.5794
3.81505 12.2795 42.9825
3.89335 12.7956 43.6515
3.8791 12.3435 42.1982
3.81989 12.4129 42.7773
3.78489 12.2709 43.0459
3.8961 12.7459 43.6856
3.8726 12.5989 43.4217
3.83479 12.4822 43.1871
3.82864 12.3787 42.7682
3.78907 12.4345 42.9514
3.80491 12.3913 43.2595
3.80246 12.3176 42.9789
3.82095 12.3813 42.8966
3.78791 12.1618 41.9621
3.74201 12.2336 41.5638
3.66488 12.2226 42.8531
3.77006 12.2397 43.2621
3.79597 12.6513 43.7092
3.75214 12.1441 42.8302
3.74674 12.1693 43.0443
3.78721 12.3826 43.8322
3.82276 12.4618 43.8552
3.85384 12.539 43.5857
3.81665 12.9325 46.0719
3.94539 12.7347 44.3659
3.87879 12.5699 43.7166
3.79895 12.8033 44.8416
3.85716 12.6782 44.3816
3.81755 12.5421 43.6637
3.72927 12.5335 44.567
3.82601 12.3829 43.3674
3.79139 12.7516 44.4597
3.72808 12.4034 43.7993
3.73138 12.2145 43.9463
3.81635 12.6355 44.228
3.77497 12.4385 43.5488
3.69622 12.3126 44.1486
3.81365 12.6078 43.3322
3.6497 12.1927 44.3434
3.8081 12.7322 45.4091
3.83044 12.4992 43.2638
3.63524 12.1255 42.9531
3.65046 12.2581 44.0014
3.725 12.301 43.8384
3.73853 12.4681 43.6602
3.65199 12.2235 43.7951
3.66511 12.358 44.502
3.73187 12.3772 44.2052
3.74857 12.6804 44.6668
3.68937 12.2762 44.4568
3.72675 12.5127 43.9168
3.65828 12.4102 44.8681
3.72134 12.6794 45.4443
3.73281 12.2545 43.3326
3.60429 12.2226 43.9038
3.63196 12.1915 44.0356
3.6532 12.3243 44.7288
3.72687 12.5805 44.3229
3.64994 12.4535 44.6165
3.62817 12.8183 47.0137
3.79858 14.9577 70.7849
5.86379 16.523 45.5022
3.70232 13.037 46.3826
3.75587 12.5433 44.1717
3.61359 12.2828 44.4776
3.63552 12.3202 43.9071
3.5819 12.2003 43.9033
3.5853 12.1266 43.819
3.5717 12.2853 44.6826
3.59121 11.9639 43.7733
3.61511 12.4183 44.3473
3.59304 12.0739 43.8529
3.57121 12.2441 44.5789
3.61191 12.319 44.4919
3.57831 12.2117 44.7263
3.59863 12.1346 43.871
3.55969 12.194 44.2849
3.58585 12.201 45.0145
3.59243 12.1832 43.6862
3.46875 11.7881 43.779
3.56477 12.0894 42.9954
3.47644 12.0268 44.0776
3.49631 11.9755 44.1728
3.5184 12.0314 43.6794
3.47035 11.9609 44.0139
3.4796 11.777 42.7904
3.37848 11.4132 43.0276
3.49524 12.0676 44.6016
3.57673 12.0778 42.9741
3.41613 11.6499 42.6024
3.42507 11.9253 43.3888
3.4006 11.9789 44.584
3.50419 11.8622 43.819
3.47251 11.9068 43.7299
3.46899 11.8024 42.8122
3.36831 11.7285 43.2081
3.39908 12.0235 44.3523
3.43107 11.5396 42.488
3.31019 11.5679 42.7919
3.34791 11.807 43.6799
3.40886 11.7099 44.1459
3.45314 11.5196 42.8892
3.38259 11.854 43.5095
3.39398 11.4905 43.1923
3.41146 11.8272 42.8467
3.30968 11.5205 43.2683
3.38654 12.0336 43.8691
3.37264 11.2935 42.7414
3.35537 11.5609 42.8389
3.32361 11.7634 44.596
3.43654 11.7361 42.3308
3.30165 11.7176 43.9344
3.39419 11.7797 42.8872
3.31594 11.5723 42.6548
3.31482 11.6341 43.4592
3.3243 11.2935 42.7784
3.30866 11.6949 43.3482
3.31128 11.4593 43.372
3.34415 11.5713 43.2304
3.31938 11.5336 43.4364
3.32917 11.6384 43.4992
3.343 11.5264 43.2783
3.32404 11.5368 43.8925
3.35074 11.5543 43.3234
3.32155 11.6061 43.084
3.29759 11.7431 43.878
3.3183 11.4362 42.5051
3.26166 11.4401 43.2257
3.30931 11.5474 42.7227
3.25437 11.3648 42.7101
3.24027 11.4312 43.1872
3.26728 11.4086 43.1014
3.2512 11.4178 42.7714
3.23085 11.2614 42.9223
3.28603 11.7396 43.5044
3.25567 11.4094 43.1561
3.23747 11.575 44.7643
3.37708 11.6376 42.7005
3.20734 11.3506 42.7229
3.22384 11.4858 43.8997
3.26322 11.3679 42.9648
3.22462 11.3306 42.7864
3.22638 11.3709 42.4236
3.19897 11.1763 43.8332
3.27045 11.2458 41.9031
3.14272 11.0283 41.0362
3.07888 11.0108 41.7887
3.11061 11.1043 42.6828
3.20644 11.3977 43.3755
3.2397 11.5053 42.9514
3.17604 11.147 42.1991
3.15069 11.0498 42.3385
3.16797 11.636 43.6857
3.18024 11.4409 43.5145
3.20482 11.1208 41.9596
3.13715 11.6575 43.6144
3.18208 13.4396 69.9934
5.13857 15.4324 44.6689
3.23016 11.5147 43.0357
3.18305 11.3633 42.5692
3.13396 11.1211 41.7452
3.06981 11.2335 42.3151
3.09524 11.0285 42.3876
3.1058 10.8611 42.5082
3.1264 11.169 41.9212
3.09169 10.9083 41.5338
3.04377 10.8404 41.3164
3.04523 10.9003 41.6744
3.08592 11.1487 42.3921
3.08766 11.1207 42.2822
3.07867 10.8126 41.8403
3.02923 11.024 43.1542
3.17946 11.1402 42.498
3.10361 11.1064 42.4962
3.08484 10.8719 41.7438
3.05323 10.95 41.5418
2.99189 10.7078 42.2691
3.07668 10.9441 41.799
3.06674 11.0114 42.326
3.07776 11.0837 42.3128
3.07626 11.1054 42.5901
3.10958 10.9389 42.3625
3.07264 10.9573 41.8374
3.03803 11.1281 42.6393
3.07065 10.9788 42.1374
3.03912 10.7119 41.7502
3.02651 10.6483 41.4513
3.03592 10.9488 41.2346
2.96472 10.5478 41.1414
2.97796 10.8726 42.7555
3.09442 11.1441 42.8124
3.05658 11.1405 43.4423
3.14451 11.0535 41.8387
2.99086 10.7152 42.0428
2.99746 10.6277 41.0204
2.97294 10.7315 41.9712
2.98675 10.7846 41.9153
3.01291 10.6927 41.6762
2.99803 10.767 41.2806
2.97045 10.6556 41.4076
2.97655 10.6962 41.085
2.94406 10.6484 41.2296
2.96643 10.7315 41.6128
2.99497 10.7108 42.4527
3.04652 10.9897 42.8184
3.06917 11.1062 42.4556
3.01059 10.7465 42.1151
3.02776 11.1823 42.9461
3.04397 10.6445 40.9511
2.89797 10.7052 41.4858
2.94802 10.8769 42.1083
2.98418 10.4428 41.1682
2.94424 10.8594 41.9553
2.98387 10.5298 41.5601
2.97792 10.9114 41.1416
2.90032 10.5027 41.9178
2.98915 10.6822 41.4028
2.9253 10.8101 42.2528
2.98313 10.4217 40.1471
2.86753 10.5016 41.1728
2.92315 10.3968 40.7679
2.88792 10.4747 41.2218
2.92154 10.7832 42.197
2.99247 10.6169 41.2949
2.94071 10.7247 41.1539
2.88771 10.4679 41.3828
2.92553 10.564 41.6786
2.95307 10.6915 41.3609
2.89607 10.3268 40.5909
2.87135 10.6126 41.4068
2.89361 10.5057 41.2183
2.91821 10.5454 42.0383
2.9823 10.8504 42.4196
2.97646 10.6754 41.696
2.88037 10.5181 41.3392
2.88865 10.4644 41.5834
2.8982 10.5592 41.4364
2.91524 10.6107 41.6265
2.92801 10.6083 40.5519
2.8415 10.4127 41.5176
2.93233 10.7287 41.2796
2.8604 10.5651 41.4981
2.90107 10.277 41.1081
2.89815 10.6322 41.1637
2.87904 10.6097 41.9832
2.88827 10.2757 40.4771
2.84593 10.5751 42.4396
2.95431 10.8069 41.539
2.88937 10.3528 40.4241
2.8233 10.4829 41.2529
2.86989 10.5466 41.2974
2.87334 10.996 41.76
2.88176 13.3631 71.361
4.79339 13.5023 39.8793
2.78121 10.6736 41.2719
2.87663 10.6864 40.7504
2.84518 10.3591 41.6813
2.91816 10.7193 41.2496
2.85356 10.4617 40.2591
2.77861 10.3958 40.4302
2.79213 10.2011 41.2591
2.85553 10.4535 41.2834
2.87867 10.5462 41.1915
2.83861 10.4184 41.0655
2.83899 10.3527 41.4458
2.83724 10.5001 40.8841
2.8476 10.577 41.1048
2.85129 10.0904 40.7447
2.84557 10.5827 41.3293
2.85046 10.4129 41.0171
2.84064 10.2682 40.7179
2.81941 10.2551 40.7675
2.84423 10.2381 40.3071
2.8228 10.4712 40.7277
2.79362 10.3062 42.1513
2.88125 10.4937 41.3313
2.85937 10.6075 41.6703
2.85317 10.5308 41.6708
2.89165 10.4447 41.3945
2.83221 10.4291 41.2201
2.83247 10.3757 41.6837
2.87601 10.6028 41.1411
2.82596 10.326 40.8872
2.83167 10.393 41.1735
2.84934 10.3385 41.4843
2.84777 10.4167 41.0283
2.83822 10.4488 41.4528
2.85424 10.4607 41.5939
2.86418 10.2513 40.6019
2.80204 10.4021 41.3105
2.86377 10.3923 40.7252
2.78378 10.3544 41.2768
2.85182 10.3294 40.6771
2.7811 10.3859 41.1806
2.838 10.2235 40.6287
2.8078 10.4712 40.9562
2.80998 10.3295 41.7716
2.82149 10.315 41.2017
2.80639 10.5096 41.2755
2.8334 10.4933 41.1759
2.78483 10.4593 40.9406
2.82664 10.0109 40.3516
2.77384 10.4054 41.4905
2.82419 10.5175 42.3253
2.89485 10.5826 41.1081
2.83952 10.2645 40.5145
2.77143 10.1939 41.4091
2.84023 10.3684 41.9832
2.89227 10.4462 41.6232
2.85885 10.3844 41.6346
2.87168 10.5127 41.3038
2.83197 10.3524 41.1446
2.839 10.4582 40.8384
2.80548 10.4527 41.0091
2.78829 10.0242 39.9277
2.73909 10.356 41.2885
2.82262 10.301 40.2363
2.75838 10.2415 40.6875
2.78814 10.2439 41.796
2.82425 10.5806 41.7313
2.82678 10.4272 42.2926
2.90055 10.6992 41.3046
2.81277 10.171 41.9406
2.88857 10.524 40.9585
2.76681 10.2966 41.1173
2.82169 10.3309 40.715
2.80168 10.3688 40.9775
2.80615 10.3329 41.2153
2.83301 10.2337 40.9346
2.81761 10.5331 41.6032
2.83051 10.3253 41.6576
2.86138 10.4243 41.1459
2.81516 10.6616 42.4086
2.90621 10.4372 42.0959
2.86513 10.5106 41.3626
2.84447 10.3771 41.209
2.81503 10.3938 41.7357
2.84388 10.4576 41.1236
2.80097 10.4235 42.1507
2.85705 10.4524 41.5956
2.82763 10.5633 42.0981
2.87479 10.4778 41.7563
2.84788 10.6473 42.0416
2.8729 10.6902 42.0142
2.88248 10.4703 42.7123
2.91044 10.7132 42.7731
2.91005 10.8681 43.3376
2.95962 11.1525 43.8767
2.95939 13.4678 66.155
4.34116 0 0