# pn-170911/RbIIA-27-RbII-1280-1959.psd
# Power spectrum* (dif=0,1,2) (really just |FT|^2)
# NOTE: only the first half! (symmetric)
# weeks: 1280-1959
# 166 clock-days, 50 excluded
# PSD: 1441
6265.75 0.172552 0.0203257
301157 5.74269 0.0408333
1.35488e+06 28.9298 0.0402755
333344 12.0298 0.0399173
211023 13.7616 0.0447572
96189.8 8.84163 0.0430897
79334.5 10.4702 0.045361
62432.9 10.9574 0.042397
45777.5 10.7237 0.0496974
33190.2 10.5217 0.0541891
28892.3 10.1723 0.0526739
25712 12.1481 0.0470971
20186.7 10.7749 0.0551382
14810.4 9.13063 0.0527397
14098.6 10.7985 0.0615447
15369.5 12.3471 0.0543167
9963.88 10.181 0.0601488
9720.08 11.0478 0.0621717
8849.17 9.58865 0.065829
6819.71 9.10657 0.0599448
6438.33 9.44819 0.0660756
7243.47 11.5833 0.0671752
6073.57 10.2745 0.076345
4851.52 9.70128 0.0663991
4905.97 10.1464 0.0618745
4553.53 10.9899 0.0704657
4884.26 11.5747 0.0954719
3542.61 8.69705 0.0741558
3806.97 10.7215 0.0816018
3613.82 11.1903 0.0956905
3253.9 9.76317 0.0912999
2861.83 10.6838 0.0951482
3067.46 11.4767 0.0934313
2663.05 10.6493 0.099049
2325.32 10.0231 0.0959603
2244.48 10.1295 0.0982176
1951.07 9.65406 0.102897
2171.51 11.8829 0.111115
1970.96 10.9968 0.113583
1853.6 11.0877 0.139137
1610.98 9.31614 0.13807
1850.24 11.6671 0.121773
1613.13 10.8945 0.129473
1413.93 10.1907 0.158868
1376.04 10.0441 0.145886
1489.92 11.7416 0.153234
1170.76 8.7162 0.116908
1405.28 12.0646 0.179591
1165.75 10.7712 0.172046
1114.69 9.95929 0.158299
965.065 9.06372 0.156621
943.168 8.79199 0.150878
1058.1 10.556 0.189339
1071.04 10.4675 0.211564
803.226 8.80856 0.164255
822.388 9.17833 0.169361
916.669 11.0642 0.233129
868.753 10.6087 0.225106
826.376 10.1081 0.19684
860.418 11.1368 0.246965
772.668 9.60768 0.197026
756.324 10.1901 0.226788
675.691 8.80395 0.230886
696.946 10.2128 0.253018
829.606 12.1605 0.325277
721.992 10.4653 0.264794
690.023 10.4616 0.351156
729.285 10.9516 0.309466
631.859 10.3003 0.326447
597.941 9.88757 0.272438
637.471 10.8833 0.352032
610.291 10.5834 0.346549
487.173 9.95152 0.324137
517.301 10.3242 0.351346
490.917 9.90603 0.335209
544.997 10.8207 0.361985
537.549 11.6194 0.379466
478.98 10.2081 0.373765
470.96 10.2195 0.374617
479.777 10.3254 0.384169
476.214 9.53263 0.371745
400.817 10.1389 0.388758
430.178 11.2051 0.46322
439.213 10.3804 0.461841
375.614 9.979 0.38416
444.105 10.6814 0.389642
376.481 10.7894 0.445726
370.334 11.1967 0.536524
348.792 10.2778 0.402453
323.967 9.24994 0.411404
318.809 9.99186 0.429015
293.819 9.10845 0.456404
361.678 11.6409 0.517634
319.79 9.49278 0.423962
318.454 9.1017 0.463717
341.413 10.5298 0.552699
309.62 9.86693 0.470685
295.489 10.9166 0.538426
337.702 11.0179 0.571386
322.389 10.8021 0.577447
319.348 9.69924 0.516631
296.577 11.5483 0.683105
250.858 9.31796 0.503895
273.208 10.4315 0.536236
286.425 11.4041 0.60981
224.939 9.78577 0.548579
224.667 9.36563 0.553494
231.507 9.10869 0.504828
231.097 9.57723 0.551086
226.386 9.84421 0.624152
247.725 11.0436 0.725998
226.926 10.6504 0.646357
255.86 9.93322 0.624328
214.652 9.57559 0.666711
244.817 10.3046 0.701108
202.484 9.77182 0.660976
219.176 10.6238 0.729396
208.629 11.4192 0.787617
198.936 10.1221 0.69009
159.69 9.22983 0.665565
213.54 11.5341 0.80762
202.796 10.5913 0.745489
201.642 10.5957 0.795521
181.05 9.28341 0.723321
198.014 12.1778 0.887387
179.504 10.4989 0.818059
180.62 10.066 0.77634
165.855 9.55673 0.780922
173.238 9.54871 0.770978
167.103 10.3077 0.858512
168.494 10.6119 0.909549
189.483 10.8766 0.955191
148.65 10.3178 1.00848
148.109 9.33224 0.834013
150.672 9.36387 0.818532
155.61 11.941 1.02973
141.316 10.1727 0.940132
179.813 11.1778 1.02025
134.78 10.6838 0.951363
142.442 9.68805 0.925398
140.26 9.46826 0.994824
124.068 8.77751 0.88891
127.187 8.787 0.896158
134.847 9.74233 1.02849
140.142 9.72554 1.04526
159.467 10.9646 1.17241
128.422 8.73294 0.951883
145.257 10.997 1.22314
148.696 10.4569 1.13176
117.018 9.43172 1.048
138.27 10.8469 1.16533
141.381 10.7096 1.22748
133.732 12.1858 1.36498
157.758 13.4321 1.50578
114.474 10.1007 1.18567
133.212 10.5211 1.22355
119.142 10.2869 1.15292
112.714 10.1492 1.18285
110.632 11.0929 1.32121
124.707 10.3105 1.34682
107.746 9.35111 1.18414
121.751 10.3736 1.32884
101.888 9.05331 1.12205
103.418 9.86258 1.31738
124.607 11.3564 1.454
92.1109 9.91404 1.33017
134.465 12.502 1.52198
97.4848 9.80566 1.31311
103.482 8.65872 1.14571
107.695 10.8844 1.40832
91.3278 8.98967 1.16817
102.984 10.7911 1.54365
109.713 11.5413 1.56133
99.752 11.2443 1.59109
97.3834 9.74234 1.35594
98.7157 10.4632 1.5557
91.3568 9.40326 1.38336
92.2932 10.4187 1.60711
111.067 12.1843 1.87819
75.8576 9.35603 1.47024
90.2627 11.7506 1.8014
96.3956 11.6484 1.9508
76.4362 8.86685 1.3687
102.149 12.0065 1.89363
97.5484 9.9403 1.65003
97.6555 10.8236 1.75328
89.4028 10.4289 1.66425
78.2147 9.85406 1.68301
79.3899 9.9743 1.63772
82.2642 9.42975 1.59519
83.6869 10.0693 1.76946
94.5017 11.4653 1.93183
80.1008 11.2094 1.90491
89.7982 12.1262 2.06524
88.6418 10.8232 1.92973
92.1425 11.3043 1.96203
74.2822 8.38493 1.5387
81.1841 11.0281 2.02075
72.1887 9.71021 1.75039
82.4749 10.4756 1.89637
84.6549 10.8764 2.01832
77.1472 11.6771 2.22324
73.246 9.90301 1.97687
65.7274 11.0221 2.20695
75.3537 10.1332 1.93601
68.5225 9.7299 1.90993
71.9961 10.8431 2.1285
72.649 9.76672 1.95892
69.4271 10.9907 2.32591
76.7607 10.5973 2.14922
69.2413 11.5395 2.40492
68.7073 10.3384 2.06955
61.4528 9.89582 2.03375
70.8832 11.4396 2.41283
71.2313 10.4109 2.25101
80.2531 11.5549 2.60305
56.2019 9.40477 2.04455
69.9379 10.2768 2.22327
55.5812 10.1051 2.29812
62.5286 9.95229 2.27838
54.6966 9.94397 2.38431
60.7422 9.69452 2.28986
65.1375 10.131 2.41975
67.1396 11.2872 2.6476
67.858 9.89709 2.37776
58.3142 12.0143 2.96051
59.7435 8.85902 2.1415
62.0283 10.6404 2.60751
64.4645 9.40607 2.45526
65.0656 11.0198 2.56263
58.6491 9.00437 2.2632
54.6068 9.8483 2.61248
62.3739 11.2318 2.9879
62.4817 10.8565 2.76732
55.0096 9.60597 2.55673
60.7803 9.62515 2.44704
65.2937 10.6397 2.80198
53.0957 10.0214 2.52232
52.7429 9.93465 2.73906
59.7137 9.81491 2.63417
50.6961 10.3121 2.79058
54.5532 10.2729 2.90551
52.6116 9.23419 2.41734
59.5204 10.6359 2.86061
58.9059 10.9194 2.98154
50.7429 10.122 2.87565
54.1741 10.1796 3.07693
56.0897 11.2859 3.14717
55.376 11.2626 3.1593
55.4839 11.4906 3.24596
51.4503 9.34797 2.72231
68.797 11.8714 3.66733
57.4835 11.9251 3.49999
56.4199 11.7074 3.66869
61.7225 11.3378 3.58276
50.832 9.01792 2.76106
40.4407 7.97159 2.53101
59.6657 10.5656 3.35665
62.0146 10.9001 3.31683
45.712 10.6177 3.4033
56.7787 12.0617 3.74634
54.5796 10.121 3.2406
51.2583 9.64052 3.0921
53.4906 12.2102 3.89066
51.2819 10.6056 3.47255
48.2392 10.7182 3.49184
47.2304 8.81808 2.83081
45.5178 11.1556 3.49984
47.0202 11.1641 3.71435
47.5952 10.7397 3.67638
43.6716 10.7655 3.73848
54.2607 11.7382 3.96125
50.5193 10.2879 3.57837
38.2561 8.77437 3.19773
41.5561 9.75089 3.39395
37.4458 8.15005 2.93464
40.249 10.5312 3.52009
45.2848 10.8091 3.99857
42.003 10.2276 3.65267
43.2532 10.8391 3.99824
41.2371 8.86342 3.29533
41.3293 10.1504 3.75789
38.0218 8.72534 3.29029
42.1871 10.3175 3.9433
42.5975 10.0575 3.87364
42.5683 10.0161 3.87307
38.7609 9.72955 3.73854
45.1469 11.1477 4.38121
41.1052 9.73428 3.85849
42.3399 11.0776 4.24934
47.1281 12.0624 4.50519
35.9873 9.29331 3.5926
46.0411 11.131 4.28195
32.1753 9.4743 3.80891
35.8675 9.33571 3.87339
39.3682 9.88309 3.83894
47.2612 14.3961 6.00215
35.3806 9.64393 4.02444
45.2229 11.6443 4.70549
37.8979 8.83616 3.62512
39.7629 10.7719 4.56301
36.9923 10.3743 4.19465
38.6452 9.20481 3.97764
35.5768 10.1021 4.03481
41.0904 10.4984 4.38837
34.8294 9.2433 4.04324
39.8586 11.0942 4.92571
36.9648 9.90143 4.10836
39.9292 11.524 4.73985
36.4535 9.97015 4.44982
38.2507 10.5665 4.68423
35.9789 9.96287 4.46208
28.1672 9.50717 4.02978
37.7719 11.7063 5.35344
33.9033 10.4901 4.8885
32.7778 10.8752 4.81078
33.4949 10.8382 5.14699
29.7873 9.3061 4.56565
33.7129 9.25533 4.59716
29.2273 9.45886 4.39793
34.8595 11.0775 5.27644
31.8785 10.169 4.93563
28.4445 10.2597 4.993
28.3946 9.87814 5.13529
33.8486 10.4735 4.83834
32.4385 9.84901 4.71459
32.6127 11.2185 5.51975
30.4491 11.2679 5.67204
30.0329 10.446 5.43808
30.3318 10.3618 4.93805
26.9594 11.0976 5.60467
29.9766 11.6537 5.89782
32.0403 11.505 5.33161
25.8456 10.1992 5.34468
28.5674 12.2322 6.13188
27.3416 10.1762 5.43655
26.5189 9.48657 4.86731
26.8911 9.79193 5.03586
29.7232 10.895 5.62959
26.5395 8.88883 4.74948
25.1521 9.3947 5.0731
25.1444 9.87532 5.06719
30.7612 11.3303 6.13279
27.1307 11.7007 6.30787
29.4857 9.28625 4.83781
26.1478 10.3411 5.44384
25.8539 8.89904 4.87228
26.0958 10.0328 5.55395
25.6589 11.0137 6.21135
24.0973 9.06405 5.20121
27.1672 9.90303 5.52847
26.3804 9.45108 5.46954
28.015 10.5136 5.77464
28.9508 11.6202 6.65125
26.0552 9.69181 5.61847
31.3816 12.8185 7.42609
27.3443 11.905 6.76149
21.5785 8.5161 5.31231
22.4225 9.97844 5.69337
26.5141 10.3555 6.29574
24.5356 11.4964 6.31314
23.0359 9.74017 5.67859
24.8967 9.60893 5.62698
27.0408 10.3228 6.28486
24.5096 10.5323 5.99157
22.0873 9.34711 5.39865
25.5564 11.5841 6.96504
24.3326 10.523 6.48951
23.0813 10.2789 6.39239
24.027 12.1941 7.42567
22.3262 9.0593 5.54246
21.1805 10.3125 6.73688
23.1227 10.4962 6.55454
21.6413 9.59119 5.87515
22.15 10.4797 6.69705
23.2613 10.5341 6.699
26.5281 11.5525 6.99708
24.753 10.7294 6.98798
26.0287 11.7907 7.33945
20.9629 10.3993 6.6709
25.1403 11.8223 7.23058
23.2169 10.2935 6.83468
21.3862 9.82616 6.76488
22.3936 10.3035 6.6008
18.8728 10.8179 7.29462
21.565 10.6515 7.12293
21.1013 10.4303 6.49888
17.5128 9.75717 6.79325
19.2409 9.94136 6.79222
22.9154 10.5354 7.1166
20.3236 10.2866 7.39866
22.9242 11.3377 7.8988
17.3852 8.58902 5.54889
19.9803 10.8871 7.70264
20.0029 12.0534 8.72689
20.8324 10.6576 7.73548
17.3089 8.23197 5.82095
21.6543 10.1774 7.7995
22.1663 11.2869 8.04283
21.0502 11.0417 7.86414
17.1663 9.07675 6.76298
17.7515 9.92338 7.9168
21.4937 10.244 7.11796
23.9798 11.1874 8.03518
18.9079 10.9959 7.96885
18.8614 11.6305 8.55895
22.8003 11.1895 7.91214
20.9926 10.8089 8.04163
20.321 10.9998 8.43812
19.8066 9.21227 7.06697
21.1718 11.2677 8.22511
21.8588 10.251 8.0755
17.5635 10.8152 8.07358
17.9982 8.7643 6.73605
17.4816 9.32038 7.21303
16.7403 9.50177 7.30439
17.8588 9.84593 7.67169
19.775 10.3095 8.181
15.5665 8.83256 7.0452
17.6207 10.7975 8.13515
16.8313 10.9415 8.45653
18.2979 10.9681 8.34794
15.5744 9.22033 8.22857
16.7105 10.8628 8.41808
15.8828 9.96295 7.64021
17.9655 9.3124 7.6453
18.1136 12.0452 9.2284
16.7214 10.6135 8.85047
16.7355 9.46951 7.91798
15.1515 9.48024 7.4204
16.5213 10.3611 8.62889
15.3684 9.76284 8.54301
20.5958 11.5161 9.45811
18.3697 11.7808 9.59137
16.4501 10.0484 8.39994
18.839 12.1365 9.65123
16.9197 9.04094 7.76209
14.0972 9.17837 8.23116
15.7466 8.79459 7.066
19.6288 12.9708 11.8139
16.1909 8.8903 7.16835
15.6773 11.5958 10.3037
16.8081 10.8047 8.8379
19.6293 12.9064 10.5258
17.4354 10.583 9.49681
16.3453 11.6178 10.1174
16.5255 10.0473 8.89477
16.0465 10.7026 9.55569
16.5904 11.084 9.81256
14.9745 10.0808 9.00587
17.1998 11.77 10.0301
14.9696 10.3853 9.22238
16.2531 12.7941 11.7632
15.0347 9.5263 8.68104
17.1882 11.5271 10.3073
17.1682 12.3394 11.3642
18.4901 12.56 11.5694
15.3656 11.4422 10.0216
17.9049 11.7086 10.7178
17.3567 12.4254 10.717
16.2499 12.3093 11.6121
14.2629 9.63881 8.876
14.3138 10.1346 9.29238
12.4412 9.53653 9.35002
14.1554 10.3276 9.74588
12.3229 9.10606 8.37501
13.8315 10.2215 9.88207
13.7694 11.3154 10.7206
16.4851 11.858 11.0302
14.1783 11.2044 10.3691
13.8167 9.44699 9.22052
14.4127 11.7709 11.7023
14.7315 10.5141 10.03
13.9995 11.0124 10.6976
15.9193 10.2395 9.77609
14.4636 10.7988 10.2763
14.5114 10.5936 9.93037
13.8367 11.1648 11.4048
15.1782 11.4037 11.3298
13.72 10.4036 11.1048
13.9065 11.0101 10.7544
13.2405 10.3995 10.2799
14.2565 10.3503 11.2877
14.4302 10.7371 10.9946
14.7633 10.5745 10.6975
13.9484 11.1607 11.1654
13.8452 10.8757 10.563
12.6686 11.0901 11.9353
16.8157 12.6072 12.2339
13.311 9.42344 10.6813
14.6045 11.5198 11.1916
10.8117 9.4525 10.5443
12.9541 9.73847 10.191
13.0657 11.5648 12.4718
12.7237 10.4234 10.616
10.7312 8.55077 8.90625
12.5572 9.94352 11.2126
14.183 13.1443 13.5239
11.7839 10.8199 12.316
14.4463 11.4643 11.7093
12.7873 10.1715 12.0958
14.0478 11.6674 12.4118
14.5396 12.6803 13.3652
13.2656 12.2674 13.3384
13.0798 9.05007 10.5285
12.0599 10.2329 10.73
10.101 8.76015 10.1163
12.1048 10.8362 12.027
13.9664 11.8646 13.6786
13.3644 11.0024 11.4588
13.268 11.1284 13.2599
13.1477 11.0775 12.0072
13.7176 10.9633 12.2682
11.778 11.6839 13.6632
12.8906 10.9856 12.3957
14.3966 10.8789 12.1752
14.1085 10.8626 12.7882
12.983 11.3361 12.9666
13.0425 11.4897 12.9129
11.4423 10.191 11.7879
11.9431 10.4274 12.3073
13.1137 11.0862 12.4332
13.854 11.4318 13.4409
11.7497 9.60577 11.7604
11.9336 11.4254 13.8469
11.8439 10.4159 12.1646
12.6457 10.7052 12.0764
11.3715 9.96052 11.7963
12.7024 10.4727 12.4751
11.8682 10.8776 12.8789
12.3157 9.36045 11.845
14.8575 11.7991 13.141
11.6575 11.5674 13.8072
12.2345 11.3684 14.1116
12.1478 10.8947 13.9263
14.6721 12.6269 14.4202
12.0312 10.8077 14.4952
12.9964 11.2501 13.9422
12.3181 10.5158 13.1286
12.2492 9.53843 12.261
11.6117 11.0476 13.9212
11.8644 9.33828 10.7922
13.156 12.1539 15.523
11.6998 10.3261 12.9373
9.98133 9.05244 11.4524
12.1785 10.4908 12.7486
12.0152 11.7917 14.3718
14.0713 12.8454 16.7143
12.2247 12.1315 15.6942
11.8332 10.4409 13.5334
11.709 11.0881 13.9282
12.5937 10.3535 12.8642
11.9059 11.5886 15.5105
12.1664 12.7884 16.9305
13.5921 12.4628 14.714
10.8726 9.78427 14.2319
12.1726 10.781 14.1976
12.4791 11.1948 14.2812
13.7516 14.0894 17.9428
11.6431 10.5048 13.4019
10.2634 10.1242 13.3492
11.4821 9.9923 13.1588
11.5531 11.5978 14.7283
9.98415 12.5801 18.1673
11.1929 11.0265 14.8589
14.8728 12.2796 17.0256
15.0656 14.2909 18.5314
11.9039 11.9035 15.9956
11.5558 11.1834 14.5101
11.9973 12.8982 17.831
11.2298 13.2343 19.2025
12.1143 11.5068 16.423
12.5519 12.4134 16.2799
12.2767 13.326 18.9796
10.9864 11.9244 16.7938
12.4725 11.597 14.8608
9.97283 11.8284 16.8352
13.4766 13.0593 17.5511
12.2503 12.6766 17.9655
12.2217 11.5888 16.2781
10.0441 12.8752 18.8842
11.1135 9.98504 13.769
10.8079 11.4405 16.8384
11.1952 10.6437 15.3864
11.9557 12.0586 17.2372
10.824 11.6569 16.204
10.652 10.1765 14.0109
10.3599 10.2183 14.9888
10.3278 10.8062 15.4962
10.8757 11.5128 16.9228
9.56594 10.7035 15.9591
10.3496 11.4778 16.5749
9.49908 10.2318 14.6285
10.4611 11.0061 15.6849
12.0262 12.72 18.7781
12.629 12.2298 17.9951
10.6381 12.5484 18.3681
11.1374 12.0071 17.1934
9.31364 10.6604 15.8679
11.3633 11.6067 17.9266
9.20919 10.5004 15.8299
11.9832 13.2718 19.2403
10.0024 12.0495 17.6752
10.8296 11.5482 17.5187
11.1051 11.958 18.1785
10.7557 10.524 15.1965
8.78674 11.3277 16.6626
10.9446 11.0451 16.2587
10.3335 11.531 17.1618
9.31211 10.1843 15.4628
9.49538 12.6017 21.1441
10.7316 12.6963 18.3877
10.6296 10.3103 16.1242
9.26543 10.0397 17.2095
11.4099 12.0884 18.8378
11.2512 10.8513 15.1233
9.53156 11.2523 17.1759
7.83286 11.0301 17.2443
11.4735 11.9312 18.5777
9.35342 10.9823 16.348
10.35 10.2961 16.5747
8.47456 9.55941 14.3972
9.98405 10.5362 16.0902
9.18963 9.82285 15.318
10.4675 11.2638 18.0211
9.21951 11.2487 16.486
9.10095 11.634 19.605
10.4067 10.7093 18.7868
10.5798 13.4159 21.2549
9.93965 11.8325 17.9706
9.67443 11.0359 18.3037
10.4384 11.261 18.4134
9.8955 11.284 17.9903
8.48905 11.246 18.5338
10.5385 11.3542 18.2498
10.6185 13.2493 21.923
10.103 13.2987 20.3759
8.82551 10.3647 16.7433
8.88267 10.0506 17.2313
8.52184 11.8582 20.0337
8.39282 9.13765 15.0341
8.29484 10.1272 16.4406
9.57352 10.3096 18.3826
8.80446 9.46092 16.3381
10.4865 11.9089 19.4821
9.64939 11.9308 20.0855
11.3095 12.2797 18.1093
7.95711 11.0935 20.6754
10.0823 10.5324 19.1486
9.05112 10.4522 17.5955
10.2467 11.4957 18.8967
9.26073 11.5978 20.0272
9.57963 10.4354 18.3
7.60991 10.1363 19.897
11.5874 12.445 20.8918
8.79019 11.9637 19.9333
10.9561 10.7834 19.1636
9.4613 10.6691 18.119
9.86335 10.1761 16.7987
9.47392 13.4793 23.3115
10.1671 11.0822 17.9162
8.54847 11.2622 20.0219
9.04999 10.1615 18.3839
10.9982 14.2168 22.6226
9.48457 12.7812 22.2258
8.59844 10.0136 16.2019
7.88975 11.4003 21.3879
9.91833 11.2276 20.0535
8.72078 12.0384 21.0485
9.02342 12.3414 23.2696
8.49355 11.5277 22.099
9.75791 12.3112 19.2883
8.72747 12.5027 22.0664
10.3659 12.1987 19.9054
8.47302 11.1542 20.4471
9.48616 10.5559 19.3473
9.12979 10.7386 18.6287
8.43658 8.87886 16.9846
9.92765 10.879 18.5204
7.48518 9.75015 19.3882
9.47105 11.7499 20.2671
7.60518 10.8184 19.5178
7.96968 8.89181 15.0363
8.73353 10.6706 19.0966
9.29073 11.2835 21.3821
7.93707 11.6868 24.2029
7.81067 11.3443 20.763
8.77201 11.2515 21.9456
11.6312 14.6992 26.1452
8.23365 11.0473 18.8943
8.64065 11.6589 22.2147
7.62571 10.484 21.2711
9.39965 11.9691 20.2961
7.16305 11.8915 21.6885
9.03401 12.8515 25.0448
8.73346 12.3849 23.2665
8.24817 10.7222 21.4249
8.70936 12.3267 21.3676
7.86609 10.8485 20.85
7.37308 11.3215 22.6964
7.03602 8.94786 17.4769
7.08914 10.5099 21.0563
8.4139 12.9369 23.6587
7.44813 10.0901 18.7194
7.88959 12.3533 23.0762
7.76889 11.0453 22.9121
7.61571 11.99 22.7347
8.47728 12.8343 25.5051
7.57212 12.363 22.3045
7.29116 10.2017 20.0559
7.30436 11.2357 20.6285
7.37874 11.871 24.3608
8.04684 12.461 22.9445
5.93898 9.34645 19.6619
7.20904 10.929 22.6269
8.08684 12.3388 23.7398
6.70399 10.966 21.6933
8.46651 12.5864 25.5937
8.15151 10.6549 22.7636
7.36175 11.6061 22.8944
8.7832 15.4272 28.5726
8.18801 12.6317 23.3112
7.39169 11.2131 24.6723
8.73089 12.5458 24.6919
7.57019 12.4011 22.5048
7.27341 12.4894 25.1328
7.78776 11.6086 23.1222
7.16925 10.2622 21.8148
9.49966 14.1597 25.9916
7.16045 11.945 24.9963
7.553 10.6124 21.7567
7.91562 11.1692 20.932
7.99618 12.0617 27.6883
7.97143 11.2566 22.7981
8.34579 11.2059 23.5751
8.51084 13.2775 27.3272
8.12879 11.8816 23.0922
6.6646 10.8888 24.7736
7.85229 11.3031 25.0427
8.13961 12.629 26.0759
8.63327 12.4983 24.7793
7.87995 11.2943 23.5611
8.28347 12.3158 23.2139
7.31538 13.3201 27.457
6.72579 11.4526 24.6208
7.29151 10.9762 25.3095
8.5437 14.9358 25.8786
6.3194 11.7208 26.5828
6.71761 11.6367 25.2738
7.29898 11.9143 25.5154
7.24283 11.8831 24.033
7.17089 12.6347 28.037
7.58888 12.6136 27.6778
7.47095 11.7088 25.368
7.85733 13.2977 26.8109
7.83341 11.7978 24.4149
6.04343 10.5829 25.4062
7.16866 13.0379 29.3461
7.43084 12.0771 23.6649
6.90349 11.6975 23.9675
6.20703 12.5948 29.5309
7.48285 11.4666 24.2191
6.69939 9.72902 22.6718
7.89548 13.5431 27.3269
5.89077 9.08413 19.4247
6.88109 11.2162 23.1101
5.75426 9.80434 22.0467
8.35279 13.5581 26.4366
6.08551 11.5626 25.8759
5.99092 11.3027 25.7955
7.3372 12.7411 31.2909
7.56684 11.4387 23.7225
7.27791 12.4994 26.35
5.90937 10.535 26.4678
7.63479 11.7601 26.4435
6.91264 10.9735 22.3999
6.0421 10.2993 24.1612
7.63067 13.6825 31.3408
7.17289 11.7142 23.9755
5.73704 11.0134 27.8991
6.39146 11.9964 25.5648
5.98981 9.8039 22.0443
6.47759 10.5926 23.4858
6.87964 12.5574 26.9983
6.40971 10.5528 24.2405
6.43979 10.9462 26.5873
6.44982 11.7567 26.5294
5.96951 10.2107 24.8114
6.51547 12.5544 26.3407
6.17312 11.2509 25.7024
6.57253 10.7073 25.9252
7.30554 11.4711 25.0435
6.82927 9.87132 21.5483
6.75978 13.0923 30.2481
5.9657 10.2156 22.755
5.8397 10.6355 26.4351
6.13777 9.57931 26.2398
7.39115 11.8424 27.5601
6.82674 11.1344 24.1338
6.11981 11.0577 25.5975
6.61921 12.2082 27.9531
6.58661 13.8764 34.4168
7.02459 11.497 24.2265
5.49909 11.0169 27.3217
6.08632 11.0482 27.7476
8.02678 12.7923 28.3845
6.75472 12.2116 29.4256
6.17047 8.92176 23.0887
6.62873 11.9383 28.4685
6.66677 11.4076 25.1289
5.98847 11.196 26.2414
6.5574 10.0243 22.509
5.33556 10.3493 28.2536
6.63742 10.9715 26.2897
7.74027 12.9892 30.5156
6.7122 10.6571 24.9688
6.89192 12.9235 28.7523
6.26068 9.81399 25.1679
7.06998 10.8887 27.098
5.78473 9.76235 27.0069
6.50509 12.079 27.3938
6.13779 10.559 24.3926
6.23943 10.4684 25.5984
5.37243 10.5715 25.6149
5.82293 10.3079 27.2459
6.49376 12.3985 31.5656
7.29658 12.6956 29.6085
5.76354 11.2993 27.0373
5.94443 11.2521 31.7207
6.40279 12.2748 27.1421
6.62547 10.4458 24.7125
5.43926 10.3194 28.3044
6.72539 12.4296 31.571
6.33481 12.8114 32.2726
7.29805 12.2684 30.6501
6.888 10.7162 25.1913
7.57494 11.8237 29.7305
6.78183 14.899 35.4857
5.92259 13.0924 33.3277
6.17143 12.0544 31.5989
5.84561 9.25873 25.235
6.33656 11.7086 28.6851
7.10105 13.1448 31.336
6.87205 12.1563 28.7978
5.90126 9.59296 25.6993
6.615 11.9498 28.7344
6.43977 10.6427 26.964
6.47211 12.2907 31.5693
7.32296 12.0666 29.1111
6.21786 13.4871 36.5293
7.3079 11.7556 31.4803
6.11645 11.2341 27.139
7.02424 11.2546 30.579
7.26727 12.227 32.1893
6.84651 11.1571 31.0893
8.78667 13.92 32.8722
6.87939 11.2365 27.4978
6.38993 12.5045 34.658
7.07688 11.655 32.7062
7.60647 13.8077 33.1946
6.55979 11.3916 31.0801
6.23637 12.7497 31.0363
5.58648 12.0687 30.1661
6.55933 10.9231 30.4946
6.47971 11.804 33.0197
7.41087 12.91 31.4756
7.25366 14.224 35.2472
6.91174 11.5045 30.9961
6.51809 12.201 29.3504
5.94731 11.9823 30.855
6.77989 12.9459 35.0904
6.40259 11.825 30.8486
5.92765 11.6965 29.2255
5.65434 10.7351 29.9011
6.16939 9.34092 25.7465
6.59166 12.1902 29.9337
5.88509 12.1185 34.7459
6.93853 13.8285 35.7706
7.41508 12.8318 37.9693
7.20574 13.9837 31.785
6.71545 13.3228 34.9058
5.57942 12.5566 33.9713
6.94335 12.5698 29.9583
5.83972 10.9802 33.6588
6.06263 10.6686 28.4409
6.47744 12.5017 37.8901
6.82422 11.8557 29.0566
6.07263 11.1475 30.4269
6.638 10.9788 29.084
5.89879 9.92567 29.1969
7.43551 12.4681 31.5334
6.22308 11.2427 30.751
6.55957 11.2032 27.6815
6.46393 13.2829 39.2731
7.8688 12.6972 34.1939
7.20164 11.8016 32.864
7.33364 11.4802 31.9352
8.3546 13.2919 36.7813
6.88974 9.85702 29.5662
7.50748 11.0301 29.9531
7.65372 12.0984 34.3862
8.35157 14.0367 35.6133
7.22245 13.0615 38.1307
8.28357 12.1961 27.4511
7.33596 11.9083 32.5948
7.16494 13.0601 34.7093
7.40164 11.844 32.581
6.6597 11.103 30.054
6.33045 11.3838 36.3363
7.84663 11.6796 35.6992
7.10678 12.7201 33.796
6.39737 11.5672 36.2246
6.28214 11.9855 34.5472
6.81454 11.2882 31.9145
6.39587 11.7675 30.771
5.96957 10.5334 30.2948
6.74969 13.1334 36.4796
6.57154 11.2412 31.1332
6.22268 10.8959 31.4783
6.7354 11.2971 28.8577
5.4997 10.097 32.6985
6.09826 12.0745 32.9066
6.41581 13.1854 36.0222
6.31304 12.4537 35.9159
6.21898 13.6927 40.3026
6.4019 12.8833 36.775
6.19832 11.8603 31.9029
5.77214 12.1238 36.2584
5.94436 13.3674 39.7598
6.22613 12.419 33.8094
5.92585 10.7541 29.4992
5.40563 11.6905 30.7125
5.74101 11.6833 34.3078
6.24664 12.459 33.6792
5.38768 10.8276 33.6997
4.95179 12.6005 37.8741
5.99132 12.0343 32.8233
4.85494 10.9598 31.9632
5.50786 10.2721 30.9767
5.98791 13.3178 40.0419
6.06167 11.9107 32.9284
5.49856 12.5411 41.2421
6.26754 13.2092 36.0233
5.36561 12.5735 40.0644
6.54256 14.2287 34.1337
5.63976 12.7379 43.4951
7.11991 13.6579 39.3417
5.54077 10.7899 35.9405
5.37121 11.8776 30.7724
4.87657 13.5732 36.1781
5.2364 12.5171 41.3484
6.34419 11.9404 34.3031
5.52867 11.697 34.9136
5.29249 13.0308 40.1424
5.94145 12.7598 38.7105
5.61447 12.4939 39.8508
6.22835 12.2224 33.9518
6.02574 12.8221 37.1336
5.56275 13.0846 40.8485
5.60509 13.6722 39.2151
5.87618 13.1127 40.5186
6.13481 13.4628 43.3738
6.7479 11.2594 31.5715
5.65445 12.073 35.9662
6.44544 13.3516 37.7121
4.68849 12.7018 40.7751
5.36453 13.0221 40.2374
5.54703 11.7817 32.679
4.58531 9.92962 34.5014
5.49737 11.9333 31.87
4.51025 10.5034 38.2479
6.62707 13.5381 36.8033
5.18962 12.7774 34.4747
4.96412 12.5076 38.1727
5.15459 11.9143 43.3281
5.75399 14.1021 38.656
5.66058 12.6588 35.8448
5.3549 12.2319 37.9777
5.23132 12.7274 38.8243
5.23596 11.806 36.6977
4.86749 11.5227 36.5413
4.80448 12.2352 36.3296
5.49252 13.4829 36.9387
4.89142 12.5436 38.4961
4.91873 10.996 37.853
5.26755 11.2535 35.1685
4.85253 10.9599 37.3652
5.29039 12.9228 34.1252
4.95758 9.94843 28.1942
4.17278 10.7268 31.8881
4.16371 11.0489 34.8798
5.10072 13.1659 45.5708
5.2602 11.9451 33.5741
4.53107 11.0475 33.6851
4.29466 11.4922 35.6718
4.31571 10.7095 35.7433
4.71412 11.4095 33.8332
4.32504 9.92303 30.0944
4.18357 12.3768 46.4669
6.09329 14.853 39.6937
4.74971 12.9516 43.6064
5.42269 16.2913 45.8611
5.04641 12.362 44.3156
5.32033 13.1385 43.7348
4.95915 12.3877 38.0591
4.96107 12.3362 36.6443
5.02153 12.3662 42.1113
5.0242 11.0802 36.3952
4.95206 10.3188 34.0287
5.05878 13.2054 36.3291
4.32536 11.5374 39.1978
5.40277 12.4346 41.4353
4.67207 10.4565 34.193
5.25189 14.6961 47.6513
5.86782 11.6606 35.4511
5.16866 11.1263 41.1695
5.64069 14.8011 41.9318
5.52086 12.4713 42.4537
6.04423 13.8856 43.9805
6.16922 12.5671 34.8373
4.63821 11.7566 41.7162
4.7421 11.4295 38.5212
5.62013 12.1489 39.0864
5.44111 13.017 40.0008
5.24376 11.7551 34.8784
5.04829 11.6164 35.3039
5.21485 11.2468 37.9956
4.56724 10.8282 36.5881
5.29108 10.1929 35.4419
4.92771 12.1785 39.6662
5.70018 13.3056 40.2902
4.21368 11.7844 37.6636
5.66745 14.5896 45.2782
5.42755 11.3339 42.4162
6.01296 14.0767 42.1518
5.69946 13.4251 43.7917
5.39618 14.3293 44.4798
5.58366 13.553 45.8507
5.75289 14.9848 48.5834
5.53871 12.1435 41.6688
5.50472 12.7077 43.9983
5.3932 13.7814 42.2317
5.11002 11.0119 39.3948
5.02066 12.8887 39.9766
5.11342 12.3315 39.7653
4.5367 12.5431 39.9857
4.70238 10.2759 36.8934
4.60752 12.5026 46.1651
5.5974 12.6024 39.2272
4.63624 11.0096 39.5263
5.34946 13.1755 38.7239
4.62059 13.0263 43.843
4.97955 11.6397 42.6689
5.73083 12.7357 38.4622
4.60718 11.5211 36.6347
4.7857 15.2918 45.3475
4.22786 13.1947 49.852
5.66825 14.1576 42.8375
5.4291 12.248 45.6253
5.15496 11.4288 40.0229
5.51856 11.947 36.5761
4.3963 9.42848 34.6513
5.29182 12.6626 39.7912
4.44028 13.0275 45.1026
6.0151 11.8006 41.0109
5.04368 13.3652 43.2188
5.16753 12.6574 36.5031
4.29252 10.4967 38.7302
5.40298 11.8311 39.3758
4.37402 10.8907 40.4212
5.22962 12.4854 44.7708
5.15713 12.1013 44.5143
5.7617 12.404 38.153
5.56881 13.3691 44.045
5.36061 13.9566 39.8065
4.77018 12.6831 42.7347
4.98236 12.1446 43.9623
5.48588 12.0387 38.1269
4.59864 12.7405 46.93
5.12332 11.5913 37.9516
4.82737 11.9972 46.0877
5.79678 13.5429 43.1937
5.28845 14.6455 43.8387
4.91458 12.9039 43.9506
5.03476 13.0222 44.3353
5.04125 13.5219 49.2334
5.44445 14.929 48.6357
5.18501 14.3336 48.7581
4.78799 13.4968 42.9722
4.10993 13.1092 48.1055
4.72237 13.1837 44.5819
4.91287 12.5536 48.0272
5.0774 14.6024 49.3892
5.08203 12.927 43.5854
4.50455 11.3948 38.4906
4.81186 13.8913 46.5806
5.14634 12.9629 46.4348
4.68177 13.6095 42.6304
4.70346 12.3021 46.0372
4.75375 11.908 40.1624
4.63548 11.9275 47.1777
4.82446 12.1695 39.1619
4.76723 13.5005 46.2751
4.75543 12.205 48.0556
5.73527 14.2989 47.2337
4.64072 12.7762 43.5827
4.3723 11.1801 48.9251
5.68652 14.6828 44.7245
4.74037 12.1248 35.325
4.42651 11.1475 38.5851
4.18632 11.1894 38.6754
3.59889 10.463 38.7199
4.50148 11.7347 44.6355
5.23483 13.7469 41.8658
4.69131 12.3468 42.1306
4.11836 11.9046 44.4895
4.50337 12.2358 46.7755
4.66866 11.313 40.1426
4.2387 11.6832 37.4663
4.25917 12.7878 47.836
5.2253 13.3854 44.2059
4.58747 11.8312 46.5398
5.02101 12.6412 37.2427
4.14576 11.2131 41.3167
4.73928 12.169 44.8174
4.61397 14.3247 54.0607
4.68426 12.7568 41.592
4.43058 12.9777 43.2409
4.77289 12.2836 42.7971
4.34474 11.3029 44.076
4.50167 11.2489 39.5723
4.09032 12.4223 39.2122
4.55927 12.5097 46.376
4.36693 11.397 41.7449
4.98184 13.2535 41.0215
4.76484 13.0176 44.3211
4.43437 11.4284 48.0032
4.81406 13.7241 51.2394
5.40618 14.0305 48.7226
4.3726 14.513 53.1026
4.61881 12.1573 44.2118
3.86627 11.4865 46.6534
5.02151 13.2768 47.2918
4.64177 13.7547 48.5646
4.89414 11.3059 43.9247
3.81909 11.4455 43.6008
4.20497 11.5489 36.7266
3.72561 12.1452 48.8801
5.33087 12.8415 47.9843
4.71537 12.9342 42.6074
4.73387 13.5448 51.0538
4.54346 15.1933 49.7558
4.90884 12.0445 45.0058
4.46317 12.5787 44.8564
4.90636 12.0238 43.964
5.90575 13.6246 56.9788
5.82427 13.7788 48.683
5.46101 14.1371 41.4533
4.74996 11.2598 47.1341
5.76177 12.165 38.9743
4.48646 12.7647 45.8557
5.00701 12.5678 41.862
4.98941 11.6444 45.2246
4.53715 11.6336 45.9216
4.98027 10.6322 42.1393
5.02992 12.8338 43.1044
5.20158 11.111 43.1444
4.45097 11.4851 42.6862
5.34005 13.654 43.5927
4.80606 13.2678 44.6342
5.0007 12.5286 45.0889
4.86048 11.8241 42.9305
4.97974 10.9016 43.7105
4.48002 11.5321 39.648
4.92272 13.8163 53.5586
5.29161 11.76 43.3071
5.3903 12.764 50.019
5.87782 12.7296 45.794
5.30255 14.8919 48.1025
5.32411 11.9396 47.9097
5.75781 14.2258 48.9109
4.97985 11.6266 43.3745
5.53479 12.7219 42.6249
4.60874 11.9678 45.7451
5.11568 13.2418 45.5817
4.97949 11.6177 43.0781
4.97442 11.631 45.5246
4.75529 10.9687 43.8583
4.7075 12.3499 43.3944
4.98879 12.0204 41.9807
4.6211 11.6458 42.0247
4.02156 12.571 44.7867
4.72362 12.4226 50.9062
5.11757 10.1814 40.7061
4.49101 11.5817 46.7381
4.50593 12.6138 42.598
4.81952 10.7779 40.5282
4.25054 12.3113 43.0361
4.43712 11.561 40.7716
4.68839 12.6204 44.8504
4.40804 13.0033 52.9169
5.0322 12.985 46.4043
4.68032 10.8233 46.3641
5.0776 12.7281 47.8251
4.98515 12.8023 46.5695
4.37385 12.964 50.7287
4.91852 13.0501 42.8105
4.08703 9.93724 41.5081
4.10575 12.7059 44.9171
4.04349 12.4682 42.0084
4.43709 13.0746 53.0266
4.858 11.6697 41.8409
3.42439 13.6394 55.2135
5.73816 13.1185 51.8089
4.46543 12.3731 45.6082
4.89821 11.7018 44.0902
4.40075 13.1145 50.3696
5.05859 10.1658 42.4116
4.64002 12.8178 44.3602
4.68001 11.1177 47.5133
4.67998 11.6689 39.3152
4.27285 11.3723 47.354
4.85925 11.313 42.5571
4.52573 12.9093 40.0145
4.2487 12.2778 54.2821
5.02941 13.3603 45.0872
4.20451 12.8684 44.8523
4.61181 11.6747 52.9362
5.53201 13.7459 48.4469
4.97241 12.5893 43.5835
4.43342 12.8573 51.7476
5.51128 12.4344 48.8655
5.28264 12.148 50.0894
5.31571 12.4204 45.3594
5.33027 11.7796 50.5336
5.58988 13.3595 47.6515
4.5284 12.7395 47.5155
4.88673 12.8512 46.5808
4.9649 11.9001 47.5374
4.77336 13.1642 45.972
4.52984 12.382 42.8535
4.41704 13.8711 63.0703
5.88965 13.3612 44.3046
4.67326 11.7721 44.2824
4.48106 12.1177 48.7419
4.6483 12.2285 45.2242
4.59487 11.3133 44.6527
4.34405 12.3062 49.8058
4.04983 14.4504 47.2033
4.62469 10.5658 44.8367
4.48968 12.4654 49.1364
4.17832 12.568 49.2768
4.66164 14.1717 47.087
4.24197 10.8254 45.9252
4.18397 11.8618 43.8482
4.5971 11.4541 41.9713
4.36285 12.0557 48.6605
4.09046 11.2485 40.106
3.54636 13.3854 50.8389
4.48832 12.7985 50.8692
4.53246 12.7409 45.9504
4.1421 10.363 46.7858
4.74979 13.9932 50.0956
4.17475 12.8038 49.7499
4.84143 11.5361 42.665
4.10307 12.7207 48.7554
4.93243 11.4454 45.3526
4.1032 11.1237 42.3056
4.7671 13.1953 51.7103
4.04441 12.8242 49.4266
4.73617 12.0304 49.1041
4.4232 12.2432 48.0785
4.7033 11.5732 44.9308
4.0892 13.8275 47.5895
4.5725 13.6709 58.1018
5.10588 13.2842 42.9487
4.26962 12.663 47.9299
3.9535 11.2824 49.0784
4.80537 11.9289 53.3784
4.33399 13.5367 53.659
4.63691 14.0292 49.97
4.46106 12.2627 49.8001
4.694 13.6238 50.4919
3.95296 12.0851 52.8538
4.84192 14.9632 51.3686
4.77497 12.09 50.6195
4.42862 14.5161 53.7606
4.25228 12.1696 49.2148
4.36518 13.3371 50.0107
4.5781 13.8089 52.7505
4.68595 12.1598 47.3639
3.96609 10.5408 42.9273
3.98732 13.9261 47.7813
4.05534 11.111 49.8025
4.06359 10.8734 40.2054
3.71949 12.5981 52.8196
4.48284 12.944 46.3602
3.89211 11.5892 46.8487
4.17217 12.4993 45.8817
3.90864 12.5558 51.2616
4.72508 12.5359 50.68
4.19529 12.8181 50.2682
4.25668 12.3114 44.1702
3.60988 13.0539 48.9771
4.09011 13.4412 49.685
4.0224 12.3565 53.4023
4.48014 13.0296 50.0269
4.17525 12.7946 54.0501
4.72127 11.7644 47.0364
3.88149 13.5644 47.1055
4.49403 13.1987 58.4108
4.80107 14.1728 53.8457
4.17751 13.2077 51.6404
4.33112 14.8143 55.3808
4.29028 10.6856 43.4086
4.01557 13.5233 50.462
4.70127 13.9143 51.5688
4.04659 11.6566 44.5801
3.73714 11.167 51.1021
4.27112 14.0348 53.2501
3.97863 12.8229 50.0488
4.0569 11.1576 41.2212
3.572 13.3664 59.5855
4.65389 13.2908 50.9336
4.38758 12.9913 52.0819
4.15628 13.0919 48.8683
3.99327 11.4822 47.8731
4.1577 14.9079 58.0225
4.43837 13.5674 52.3481
4.26495 12.9169 53.645
4.50361 13.8441 44.7234
3.81168 12.7651 51.0328
4.18187 13.3261 47.6298
4.13078 11.6349 50.7639
3.94043 11.3986 45.9266
3.94206 12.1978 43.4391
3.46527 13.3174 60.2555
4.55126 11.3257 47.1678
4.15461 14.0842 54.0084
4.7941 12.5124 49.2851
4.10857 12.0492 45.7867
3.75862 12.5416 55.2865
4.06777 16.2003 53.1008
4.12359 12.8588 52.1893
4.36687 12.5646 48.1949
3.74293 13.1819 49.8843
3.73457 14.8461 55.2044
4.08603 12.3526 47.5862
3.99995 12.9043 50.4747
4.14462 11.7136 48.9324
4.29794 12.9467 52.6319
3.82881 11.2415 48.8057
4.72701 11.7609 48.7615
3.88843 14.4558 45.5488
3.78113 12.5041 54.371
4.58621 10.5918 42.3282
3.97009 11.6498 53.8247
4.37726 12.4722 46.927
4.02869 12.0134 46.5465
4.00404 12.3117 44.9608
3.6477 9.84617 43.5969
3.78926 12.8405 54.6126
4.57265 12.3836 49.7011
4.22659 12.473 47.7024
3.67774 12.1429 47.3436
4.52413 12.7675 47.7979
3.45383 11.6243 41.8476
3.50348 13.1808 51.7138
3.6874 13.1178 51.5416
4.14077 10.7436 42.3242
3.58526 10.3297 44.1691
4.23871 13.7727 51.6793
4.03038 11.3832 48.4992
4.00411 11.6767 46.3252
3.94546 13.2782 48.8637
4.20394 12.1568 44.3983
3.74328 11.9725 51.0681
4.49545 12.3144 45.4857
3.78318 12.1001 47.7305
4.65208 12.6788 50.4772
3.82536 13.9202 56.8341
4.46697 15.2213 59.0568
4.53173 13.127 50.8508
4.36597 12.2803 50.6012
4.36933 11.9514 63.6565
4.62883 15.9109 51.8947
4.26069 13.879 48.0399
3.96182 12.4221 54.4852
4.41187 14.7802 59.2164
5.13813 11.9723 43.4678
3.8709 11.9895 48.4564
4.41138 9.55647 42.2771
3.86978 12.0407 41.2548
3.93417 11.2967 50.2574
4.32937 12.8951 41.3877
3.47988 11.2393 51.4508
4.13659 12.4744 48.295
4.59729 13.6834 51.8754
3.86617 12.3944 48.9241
4.19263 11.1472 40.7853
3.89247 11.073 52.3095
4.53426 12.8368 44.4604
3.68493 10.9185 43.7919
3.95169 10.7044 49.0968
4.40853 13.0164 48.4604
3.90092 13.5852 57.2662
4.16006 13.5558 49.5993
3.90981 13.0392 61.758
4.90936 14.5417 52.3817
4.0662 13.684 54.7742
4.57491 12.8765 51.0381
4.16162 12.9991 50.9392
4.13186 12.0223 51.022
3.7164 11.673 48.3753
4.16073 13.7867 50.443
4.12646 12.2106 44.8534
3.9439 13.3524 57.6092
4.47392 15.2649 51.0313
4.02124 9.74256 45.9039
3.42881 12.4306 47.3679
4.01325 11.733 52.6695
4.00103 14.1738 47.4807
3.56374 11.7154 50.3283
4.28613 12.2713 47.6556
3.78484 11.3115 53.226
3.8913 13.2863 47.3256
3.61189 11.4651 50.214
4.22387 14.2631 48.027
3.64453 10.8653 49.4256
3.80141 13.4321 60.1367
4.80212 13.9405 57.3055
4.23101 13.2651 40.8032
3.56402 12.0873 46.7884
3.48597 10.8904 42.6792
3.20792 11.8028 61.2243
4.4148 13.6866 52.5345
4.57415 14.1834 55.836
4.84703 14.8124 53.2681
4.22037 12.7777 47.5623
3.90264 11.2282 47.8821
4.1502 0 0