# pn-170911/RbIIR-av-USN3-1280-1959.psd
# Power spectrum* (dif=0,1,2) (really just |FT|^2)
# NOTE: only the first half! (symmetric)
# weeks: 1280-1959
# 59353 clock-days, 1448 excluded
# PSD: 1441
793.732 0.0895611 0.024372
31788 0.655571 0.019345
134566 2.73905 0.0193063
20377.8 0.677298 0.0191341
42852.7 3.16494 0.0195007
6708.38 0.583464 0.0194115
5837.02 0.779848 0.0192503
3418.69 0.580502 0.0193302
4273.64 1.08301 0.0195388
2155.72 0.61192 0.0193895
2630.63 1.03713 0.0194194
1551.54 0.673773 0.0193612
1869.45 1.06718 0.0198496
1174.36 0.724871 0.0196704
1607.96 1.29164 0.0202515
968.964 0.813533 0.020266
1386.82 1.46786 0.0209164
830.995 0.92108 0.0203473
1221.42 1.66855 0.0216588
742.619 1.05107 0.0209591
1104.77 1.88775 0.0228326
665.465 1.17904 0.021705
1021.74 2.14043 0.0241701
625.769 1.34573 0.02283
920.028 2.31154 0.0253266
586.983 1.5222 0.0240244
891.705 2.64238 0.0273742
560.449 1.71908 0.0251707
828.475 2.86944 0.0294292
536.314 1.92019 0.0270255
731.477 2.91256 0.0314395
523.805 2.16827 0.0295241
715.169 3.26021 0.0351497
503.641 2.38236 0.0317137
688.608 3.5557 0.0385115
494.7 2.63896 0.035034
658.74 3.84082 0.0425017
485.241 2.92821 0.0385241
615.049 4.01072 0.0467228
471.522 3.18291 0.0423642
586.842 4.23808 0.051258
458.631 3.42821 0.0469533
566.24 4.52876 0.0573596
456.873 3.7828 0.052692
561.452 4.9455 0.0645383
440.068 3.99417 0.0578161
529.594 5.11491 0.0708293
429.749 4.26129 0.0643516
515.942 5.40374 0.0781595
423.825 4.60436 0.0726247
489.649 5.59311 0.0858138
412.278 4.84916 0.0794936
479.926 5.94709 0.0962145
407.934 5.20369 0.0887923
464.872 6.21 0.104948
393.348 5.42718 0.0977382
451.571 6.50049 0.116432
385.244 5.68291 0.108184
436.587 6.75993 0.127996
376.059 5.98669 0.117904
415.839 6.87558 0.13676
372.104 6.3176 0.131072
412.785 7.3167 0.152625
357.023 6.47829 0.141743
391.973 7.38718 0.163233
355.512 6.87438 0.157536
383.359 7.69988 0.178367
344.704 7.08622 0.170345
368.208 7.84821 0.191117
338.104 7.3809 0.186506
360.59 8.15115 0.209561
329.239 7.62705 0.201288
351.8 8.42918 0.226731
318.966 7.8 0.217018
343.293 8.68124 0.245267
305.888 7.92574 0.23192
330.874 8.83479 0.262019
301.683 8.2224 0.249219
322.501 9.07987 0.282747
300.968 8.65145 0.276172
309.833 9.17641 0.29841
290 8.77251 0.292343
305.303 9.50905 0.322732
279.889 8.88196 0.308988
291.236 9.53269 0.338434
279.005 9.29447 0.338421
286.883 9.82681 0.364194
270.76 9.47515 0.359175
279.925 10.0277 0.388847
262.765 9.60093 0.380577
273.649 10.2805 0.414193
260.331 9.96373 0.410178
260.996 10.2504 0.431645
244.379 9.74658 0.417712
255.365 10.4466 0.457222
246.911 10.308 0.459824
302.718 13.0294 0.588225
239.317 10.3579 0.479445
241.388 10.7583 0.508256
228.122 10.3039 0.497255
237.125 10.9782 0.5383
229.942 10.857 0.543557
240.88 11.6421 0.59479
223.069 10.9406 0.56826
228.246 11.4614 0.607235
220.824 11.262 0.607115
219.23 11.4322 0.628815
207.702 10.9729 0.614235
215.861 11.6828 0.662757
210.298 11.5608 0.671525
213.399 11.984 0.706795
200.615 11.4289 0.685381
205.296 11.9645 0.730529
202.121 11.9527 0.742109
207.25 12.5265 0.792674
195.187 11.9319 0.766304
198.739 12.4103 0.808214
184.422 11.6804 0.777245
194.272 12.5915 0.848394
187.85 12.3278 0.845007
190.843 12.773 0.890334
183.337 12.382 0.876346
182.875 12.6419 0.90796
180.943 12.7126 0.930723
184.406 13.1401 0.971029
175.775 12.7299 0.959875
178.718 13.1821 1.01117
169.992 12.6405 0.980356
172.563 13.0965 1.03347
167.058 12.8878 1.03341
169.954 13.336 1.08239
166.33 13.2502 1.09482
169.616 13.7115 1.14756
163.949 13.4187 1.13948
163.351 13.5891 1.17112
159.196 13.4331 1.17511
160.162 13.7396 1.21794
156.273 13.5668 1.22186
157.421 13.8917 1.27032
150.883 13.4461 1.24221
157.427 14.3431 1.34581
149.534 13.7882 1.31634
149.658 13.9284 1.34473
149.116 14.1301 1.38382
149.894 14.3622 1.42214
142.784 13.8961 1.39836
144.579 14.3175 1.46327
142.716 14.288 1.47516
142.436 14.4425 1.51064
141.194 14.4931 1.53395
142.258 14.8906 1.60296
138.34 14.5718 1.58461
138.152 14.7996 1.63138
135.682 14.6889 1.6403
134.64 14.8037 1.67235
134.071 14.903 1.70527
135.059 15.2395 1.7677
131.059 14.959 1.7526
132.939 15.4139 1.83461
130.124 15.1954 1.82526
128.65 15.2535 1.85777
127.082 15.2361 1.88213
126.894 15.4204 1.92305
127.151 15.6777 1.98288
127.505 15.8688 2.02626
122.576 15.4331 1.99504
123.071 15.7395 2.0635
124.704 16.0612 2.12001
121.665 15.8927 2.13017
119.652 15.7715 2.13374
118.536 15.8685 2.17599
118.09 15.9549 2.20843
118.845 16.2647 2.2832
115.281 15.923 2.25533
113.535 15.9547 2.29712
115.07 16.3122 2.36828
114.105 16.3159 2.38942
112.183 16.2574 2.41318
112.923 16.5255 2.47911
110.438 16.3608 2.48086
110.233 16.4758 2.51899
109.471 16.6017 2.57901
108.97 16.6607 2.60645
109.4 17.0396 2.71447
110.022 17.1316 2.73188
107.195 16.9615 2.74715
107.421 17.1114 2.78353
104.98 16.9972 2.81516
105.795 17.2618 2.88195
102.167 16.8152 2.83683
101.587 16.9271 2.8854
102.708 17.4418 3.0368
134.412 22.8685 3.92996
100.696 17.2321 3.02075
99.4797 17.3214 3.08617
99.1899 17.4017 3.1218
100.581 17.8143 3.227
98.8087 17.606 3.20566
96.1461 17.4634 3.23316
96.3382 17.5924 3.28188
96.4622 17.8228 3.36388
95.077 17.6932 3.36556
96.2036 18.1001 3.47658
93.8236 17.793 3.44947
94.783 18.1743 3.55555
92.5414 17.9313 3.54782
92.9692 18.1722 3.62371
91.466 18.0721 3.64694
92.4207 18.4707 3.76525
92.1431 18.5498 3.81177
91.2436 18.45 3.80649
88.9714 18.251 3.82335
89.5239 18.5624 3.92288
88.5523 18.4449 3.91756
87.8061 18.5559 4.00369
88.738 18.9036 4.09884
87.5965 18.8308 4.12775
87.0906 18.7876 4.13929
86.161 18.8543 4.20361
84.8542 18.7373 4.21562
85.2614 18.9963 4.32108
83.8185 18.8062 4.30469
83.5712 18.955 4.39072
82.9427 18.9438 4.40528
83.6217 19.2667 4.52181
81.7174 18.9926 4.50167
82.2795 19.3514 4.64225
81.6238 19.2714 4.63714
81.698 19.5996 4.77874
82.5797 19.8337 4.85359
80.5265 19.535 4.81665
78.9582 19.3252 4.81551
78.799 19.5545 4.93038
79.0168 19.749 5.02962
79.2474 19.851 5.06051
77.5356 19.6642 5.07654
77.3582 19.7511 5.12706
76.2231 19.6144 5.14355
76.4002 19.8661 5.25472
77.073 20.2579 5.41655
77.4008 20.3834 5.46095
74.5134 19.8616 5.38214
73.2414 19.6796 5.39144
73.9331 20.0067 5.51162
73.3224 20.0888 5.5945
74.4098 20.4573 5.71982
73.7714 20.4177 5.75054
73.2974 20.4369 5.80796
72.6996 20.4558 5.85211
71.7439 20.3038 5.85304
71.0391 20.3625 5.92625
70.8204 20.4568 6.00706
69.9172 20.355 6.0281
70.1392 20.5254 6.11151
69.7299 20.5469 6.15347
69.3246 20.6608 6.26337
69.236 20.714 6.3016
68.4898 20.7151 6.37497
68.5074 20.8222 6.43142
68.0501 20.9306 6.53955
67.9208 20.959 6.5847
67.5343 20.9383 6.59719
66.1512 20.7578 6.6313
66.8513 21.152 6.80336
66.6482 21.1991 6.84615
65.8329 21.1324 6.89317
65.4172 21.1043 6.91216
64.5572 21.0358 6.97158
65.0476 21.3403 7.11929
64.1441 21.1403 7.10094
64.7367 21.5 7.26068
63.9342 21.3637 7.25655
63.5381 21.446 7.35658
62.4808 21.228 7.33356
63.0744 21.5406 7.47978
62.9517 21.7042 7.59529
61.9658 21.5371 7.61022
61.9981 21.6131 7.65927
61.2019 21.5302 7.68612
60.0848 21.32 7.68992
61.1576 21.8146 7.88817
60.4702 21.7452 7.9577
60.4953 21.8671 8.033
59.6483 21.7168 8.03236
58.5119 21.4794 8.0209
58.8069 21.6598 8.11593
58.1805 21.7616 8.27384
58.7622 22.1384 8.57208
80.9982 30.2728 11.2518
58.4845 22.2538 8.6148
57.1656 21.8508 8.50274
57.0104 21.9212 8.56047
56.5016 21.8932 8.62285
57.4079 22.3806 8.84293
55.9587 21.9842 8.77855
55.6951 21.953 8.79201
55.4452 22.0508 8.90886
55.7284 22.2758 9.0333
55.4296 22.2846 9.0887
54.8022 22.2549 9.17468
54.2149 22.155 9.1904
54.0364 22.1413 9.22279
53.8784 22.2526 9.32728
53.7611 22.3409 9.42801
53.6193 22.4373 9.52753
53.2048 22.4069 9.58104
53.1299 22.5109 9.67584
52.2096 22.2721 9.64928
52.3446 22.4897 9.80878
52.3627 22.6245 9.93136
51.6897 22.4617 9.90356
51.4966 22.4587 9.9813
51.9475 22.8107 10.1436
50.6597 22.4688 10.098
50.6865 22.5808 10.2292
50.5066 22.5934 10.2754
50.1615 22.5847 10.331
49.9616 22.6539 10.4218
49.6021 22.6474 10.5132
49.7513 22.7939 10.6025
49.3956 22.8348 10.7004
49.3286 22.8756 10.7565
48.6414 22.807 10.8465
48.6825 22.9292 10.9471
48.1345 22.7911 10.9525
48.4958 23.0472 11.1221
47.4978 22.6949 11.0287
47.6497 22.9867 11.2532
48.1732 23.369 11.4739
47.3864 23.0313 11.3674
47.0514 23.0299 11.4424
46.9045 23.1446 11.578
46.5474 22.9996 11.5383
46.3345 23.1142 11.7036
46.1731 23.1066 11.7445
45.5118 23.0017 11.8007
45.9259 23.2738 11.9573
46.0016 23.4338 12.0934
44.6333 22.9177 11.9355
44.8324 23.1551 12.1382
44.538 23.0556 12.1288
45.0033 23.5045 12.4592
44.6034 23.3631 12.4224
44.5234 23.4841 12.5434
43.7185 23.2419 12.5094
43.5407 23.2755 12.5991
43.2411 23.207 12.646
43.6203 23.5565 12.8854
42.589 23.1151 12.7625
42.942 23.3669 12.9184
42.7636 23.4154 13.0316
42.3314 23.2621 12.9716
42.0286 23.3567 13.1696
42.3038 23.568 13.3358
41.9238 23.4466 13.3063
41.8085 23.5325 13.445
41.9607 23.7395 13.5963
41.3023 23.5004 13.5753
41.0192 23.4476 13.6091
40.8338 23.5099 13.74
41.0828 23.7248 13.8819
40.5159 23.5319 13.8777
40.4115 23.6259 14.014
40.0891 23.532 14.017
39.9675 23.5842 14.1074
39.8308 23.6298 14.2198
39.4792 23.562 14.266
39.2357 23.5392 14.3316
39.2289 23.6 14.4019
38.897 23.5416 14.4409
38.4546 23.4677 14.5096
38.8469 23.8573 14.8235
38.3025 23.6003 14.7702
38.6885 23.9192 14.9865
37.8964 23.5503 14.8718
38.0308 23.763 15.058
37.7846 23.7079 15.1064
37.6389 23.7312 15.1791
36.9947 23.445 15.1013
37.2468 23.7196 15.3143
36.9706 23.7404 15.4623
36.7898 23.6564 15.4711
36.5661 23.7186 15.6603
36.6512 24.0626 16.4205
51.7434 33.2741 20.9427
35.7933 23.6734 15.9237
36.2973 24.0191 16.1439
35.7811 23.6493 15.8926
36.1352 24.095 16.2499
35.2859 23.6247 16.0543
35.0917 23.6148 16.1239
35.3137 23.8863 16.3964
35.2052 23.8284 16.3448
34.8682 23.8148 16.4578
34.3787 23.6569 16.528
34.838 23.9868 16.747
34.2354 23.6644 16.6113
34.0177 23.642 16.6854
33.8775 23.6403 16.7558
33.9765 23.8454 16.9756
33.8206 23.823 17.0205
33.7356 23.9062 17.1504
33.6157 23.97 17.3107
33.099 23.6515 17.1668
33.2598 23.9466 17.4708
33.0529 23.8429 17.4744
33.1331 24.0026 17.6331
32.681 23.8073 17.5827
32.9 24.0816 17.8572
32.2036 23.6854 17.6671
32.1281 23.6673 17.6938
31.9969 23.753 17.8774
32.0667 23.922 18.0895
31.8906 23.8829 18.1587
31.9106 23.9898 18.2869
31.5329 23.8494 18.2817
31.6063 23.9086 18.3398
31.3464 23.8835 18.4349
31.0065 23.7292 18.415
30.9968 23.8866 18.6333
30.9717 23.936 18.7503
30.7219 23.8937 18.8562
30.734 23.9479 18.9271
30.7244 23.9813 18.9874
30.4031 23.9372 19.1028
30.4676 24.0691 19.2888
30.2535 23.9387 19.2161
30.0499 23.9202 19.2597
29.7368 23.8348 19.395
30.0383 24.0969 19.5917
29.6897 23.9385 19.587
29.5836 23.9136 19.5976
29.6019 24.1563 19.9455
29.1038 23.7756 19.7017
29.3471 24.12 20.0814
29.0071 23.8784 19.9576
28.9916 23.9721 20.0999
28.8113 23.9641 20.1678
28.6357 23.9139 20.2415
28.6269 24.056 20.4425
28.5938 24.0858 20.5518
28.2232 23.8533 20.4491
28.1051 23.9302 20.629
28.0624 23.8945 20.6542
27.9715 24.0262 20.8668
27.5609 23.6527 20.6162
27.6588 23.9453 20.9882
27.6549 23.9014 20.9716
27.3745 23.8076 21.0142
27.404 23.9857 21.3116
27.4153 23.9161 21.1763
26.9944 23.8497 21.3373
27.1007 23.943 21.4711
27.0009 23.9769 21.5844
26.7795 23.9579 21.7586
26.7414 24.1065 22.2965
30.1282 26.7326 23.6935
26.6439 24.0984 22.101
26.6224 24.1776 22.2632
26.4156 24.0061 22.1406
26.4031 24.0596 22.218
26.201 24.1445 22.5123
26.0285 23.964 22.3991
25.9889 23.9807 22.4394
25.9043 24.0683 22.6126
25.6402 23.8719 22.545
25.5006 23.8699 22.6289
25.2313 23.7136 22.6633
25.2611 23.7985 22.7822
25.4526 24.0292 22.9844
25.0957 23.8404 22.9409
24.9116 23.8313 23.1092
24.7482 23.6647 23.0125
24.8956 23.9096 23.2862
24.594 23.703 23.2046
24.5878 23.8506 23.4677
24.627 23.8874 23.5145
24.4397 23.8707 23.6431
24.1939 23.9032 24.0629
24.1195 24.0115 25.2892
34.5267 33.3426 31.0405
23.8876 23.8083 24.1638
23.9969 23.9053 24.181
23.983 23.9693 24.2861
23.77 23.8671 24.3157
23.6151 23.6975 24.1687
23.5625 23.7685 24.3475
23.4927 23.8197 24.4773
23.321 23.6677 24.3893
23.2027 23.7053 24.5836
23.1473 23.6796 24.5891
23.076 23.6954 24.6823
22.9258 23.6773 24.8012
22.9277 23.7304 24.8941
22.7165 23.5962 24.8869
22.8596 23.8734 25.2268
22.7498 23.8128 25.249
22.5294 23.7393 25.3657
22.3572 23.5445 25.2123
22.2819 23.4858 25.1436
22.2663 23.6425 25.4191
22.1873 23.644 25.5927
22.0581 23.6167 25.6061
21.8537 23.521 25.6638
21.8569 23.5045 25.6521
21.7209 23.4625 25.72
21.6056 23.423 25.779
21.6561 23.5356 25.9679
21.6044 23.5954 26.101
21.4007 23.5049 26.1541
21.2541 23.3498 26.0519
21.2787 23.5022 26.2932
21.1728 23.4714 26.3999
21.2674 23.5398 26.4192
20.9927 23.5076 26.6532
20.9368 23.3703 26.4793
20.7373 23.3015 26.5021
20.6093 23.2504 26.6437
20.6055 23.2778 26.6425
20.5149 23.3365 26.9079
20.4911 23.3653 27.01
20.4889 23.45 27.1892
20.3466 23.3138 27.0472
20.2431 23.3503 27.2169
20.1308 23.2738 27.305
20.0832 23.3055 27.4111
20.0329 23.279 27.4914
19.8912 23.1977 27.4728
19.7731 23.1692 27.5764
19.8182 23.223 27.5401
19.642 23.2299 27.8082
19.6406 23.2265 27.873
19.46 23.1135 27.9122
19.5225 23.1752 27.9648
19.4287 23.218 28.1871
19.4855 23.3032 28.2903
19.3552 23.2424 28.3243
19.1538 23.0889 28.2427
19.1595 23.1922 28.5024
19.0604 23.0667 28.3089
18.9464 23.1307 28.6072
18.8746 23.0635 28.6366
18.7942 22.9745 28.5394
18.7154 22.9877 28.5932
18.6568 23.0821 28.9112
18.5844 23.0048 28.9111
18.5844 23.0796 29.013
18.4956 23.048 29.1854
18.4689 22.9992 29.0367
18.2545 22.9197 29.181
18.2447 22.9486 29.2529
18.1776 22.9624 29.4103
18.0443 22.8612 29.4155
18.1647 23.133 29.8336
17.9865 22.7775 29.3979
17.7969 22.7382 29.5104
17.8228 22.8771 29.8295
17.8752 22.9147 29.8624
17.9287 23.1026 30.1631
17.8269 23.082 30.2576
17.5509 22.7192 29.8991
17.606 22.9314 30.3132
17.7135 23.0763 30.4573
17.4174 22.7994 30.278
17.3251 22.8244 30.4768
17.304 22.761 30.4026
17.1596 22.732 30.6063
17.2438 22.8788 30.8376
17.2375 22.8496 30.6805
16.9954 22.7228 30.812
17.0671 22.8758 31.1104
17.0061 22.799 31.1068
16.9659 22.814 31.1965
16.9032 22.8967 31.5146
17.0368 23.2757 32.4039
16.9665 23.5946 35.2997
24.112 31.6463 39.5701
17.0438 23.5193 32.6761
16.6925 22.9981 32.1172
16.5061 22.7398 31.8497
16.5261 22.7609 31.8297
16.3903 22.6924 31.8313
16.1975 22.3947 31.4632
16.1285 22.4997 31.7308
16.0257 22.4319 31.8855
16.1182 22.5788 32.0893
16.0525 22.4549 31.9669
15.9447 22.3831 31.9124
15.9635 22.5893 32.34
15.7753 22.3105 32.0399
15.6194 22.175 32.0028
15.653 22.2951 32.1903
15.5515 22.2491 32.3342
15.6332 22.427 32.6637
15.5456 22.2376 32.3798
15.4199 22.1552 32.3727
15.4244 22.2123 32.4277
15.3234 22.2936 32.8547
15.2749 22.1804 32.6971
15.1642 22.1061 32.7964
15.1985 22.1518 32.8451
15.062 22.0028 32.7636
15.0793 22.0638 32.768
14.871 21.9412 32.9085
15.0515 22.2144 33.269
14.9569 22.1922 33.3469
14.795 21.9511 33.1231
14.7304 21.9327 33.195
14.5977 21.6878 32.8162
14.5173 21.8239 33.3498
14.5989 21.8367 33.2228
14.56 21.8898 33.3368
14.3707 21.6899 33.2759
14.3743 21.8052 33.607
14.3901 21.8049 33.5067
14.269 21.7819 33.7256
14.2085 21.6543 33.5238
14.137 21.6598 33.7164
14.2279 21.8706 34.0325
14.0397 21.669 33.9799
13.9773 21.4889 33.696
13.9503 21.5391 33.7629
13.8086 21.4669 33.9434
13.9183 21.6746 34.3426
13.9277 21.6436 34.1729
13.8278 21.6194 34.2973
13.7275 21.5577 34.351
13.7068 21.5225 34.3045
13.5883 21.4155 34.3078
13.561 21.4665 34.4929
13.5001 21.4194 34.4903
13.3915 21.3029 34.4983
13.3456 21.1251 34.0861
13.3058 21.325 34.6392
13.2979 21.3445 34.8299
13.3387 21.2876 34.5102
13.1324 21.2577 34.9567
13.1927 21.2008 34.6389
13.0614 21.2646 35.0216
12.9654 21.071 34.9143
13.0932 21.2543 35.091
13.0926 21.381 35.4021
12.9836 21.2296 35.2432
12.8224 20.9844 35.0561
12.9323 21.2008 35.2315
12.8233 21.2253 35.4958
12.7043 21.0605 35.5063
12.6933 20.9715 35.32
12.6581 20.9608 35.218
12.5223 20.853 35.267
12.5106 20.9543 35.5973
12.5243 20.914 35.521
12.4116 20.8756 35.7796
12.5337 21.0027 35.7173
12.3853 20.958 36.0352
12.3497 20.7411 35.5879
12.2672 20.7918 35.773
12.2295 20.8382 36.0185
12.2939 21.0072 36.4058
12.1875 20.6557 35.69
12.0645 20.6689 35.9328
12.0418 20.7148 36.2281
12.0699 20.6574 35.9755
11.9562 20.6698 36.3746
12.0348 20.8155 36.5437
11.9479 20.6212 36.0932
11.8244 20.6593 36.5938
11.8555 20.5912 36.3925
11.7059 20.5196 36.6597
11.8139 20.7239 36.958
11.6077 20.4205 37.0202
11.6271 21.1693 42.8076
17.3334 29.0606 45.1995
11.6706 20.8514 37.4815
11.3409 20.2647 36.7987
11.4757 20.4101 36.9491
11.4151 20.2843 36.7912
11.4194 20.2672 36.5904
11.3312 20.3574 36.986
11.2161 20.1255 36.8509
11.2689 20.2337 36.9104
11.191 20.1218 36.854
11.2408 20.2762 37.1144
11.1335 20.1432 37.0986
11.1455 20.1326 36.9829
11.1024 20.194 37.1604
10.953 19.997 37.1282
10.9518 19.9916 37.2111
10.9085 19.8626 36.9053
10.8864 20.0166 37.4529
10.9789 20.1617 37.4822
10.7918 19.9241 37.4675
10.8106 19.9593 37.48
10.7577 19.8521 37.3132
10.6682 19.8421 37.5413
10.6971 19.8783 37.6802
10.7069 19.8316 37.41
10.5312 19.706 37.5365
10.5625 19.7668 37.6477
10.5395 19.7923 37.9418
10.5835 19.8307 37.7756
10.3648 19.4519 37.3401
10.4194 19.732 37.9702
10.4357 19.682 37.7553
10.3588 19.7326 38.1406
10.3677 19.7076 38.1208
10.3445 19.7336 38.2933
10.2596 19.5052 37.8577
10.2383 19.5867 38.0624
10.1031 19.38 37.9519
10.1271 19.4171 38.0146
10.1469 19.5678 38.3559
10.0789 19.3815 37.8784
9.96342 19.3695 38.242
9.93706 19.2574 38.1842
10.0409 19.4252 38.225
9.90538 19.2915 38.1458
9.80534 19.2057 38.1633
9.73718 19.0761 38.224
9.83035 19.3495 39.1932
10.2844 19.9279 38.8992
9.67254 19.1324 38.4355
9.70274 19.2214 38.6635
9.69724 19.1187 38.4023
9.60295 19.0349 38.4929
9.6173 19.0753 38.5595
9.67286 19.3036 39.1133
9.63757 19.193 38.8557
9.51005 19.0227 38.9576
9.56409 19.0818 38.7425
9.48347 19.0598 38.9457
9.46536 19.0354 38.8661
9.38363 18.9403 38.8812
9.34316 18.9327 39.1105
9.39099 18.9913 39.0709
9.26211 18.6896 38.6464
9.37145 19.1094 39.3559
9.25465 18.9401 39.4039
9.31217 19.0238 39.5616
9.20375 18.7531 39.0835
9.18652 18.819 39.2236
9.08765 18.6459 39.0589
9.09246 18.6709 39.0617
9.03219 18.6175 39.088
9.06029 18.7718 39.3793
8.99716 18.6829 39.4044
8.96158 18.5702 39.3214
9.03749 18.8017 39.5839
8.89801 18.6207 39.6449
8.88513 18.5775 39.6552
8.92575 18.6591 39.7571
8.81996 18.4303 39.4628
8.85462 18.6141 39.8035
8.82758 18.4749 39.488
8.72549 18.3491 39.4239
8.75612 18.4942 39.6637
8.68816 18.442 39.8357
8.7315 18.5277 39.9332
8.61087 18.3343 39.8793
8.65065 18.3681 39.7175
8.57298 18.315 39.7833
8.53651 18.2768 39.7859
8.50308 18.2084 39.8335
8.5282 18.3227 39.8847
8.39532 18.1528 40.0097
8.41459 18.1676 40.0828
8.38464 18.2334 40.5283
8.30706 19.0285 49.6056
12.67 25.5411 47.2628
8.33907 18.4434 40.9064
8.34424 18.2923 40.5372
8.27396 18.0734 40.1898
8.21336 17.9925 40.1831
8.25425 18.0827 40.3716
8.22469 18.0004 40.1292
8.13452 17.8476 40.0145
8.12868 17.8729 40.0113
8.09574 17.8222 39.9433
8.07979 17.9305 40.2821
8.01464 17.7314 39.9941
7.96027 17.7018 40.1724
7.99574 17.7484 40.3242
8.01495 17.8041 40.1593
7.90309 17.6629 40.2566
7.89375 17.6457 40.2928
7.87504 17.5412 40.0817
7.89456 17.6845 40.2785
7.84374 17.6628 40.4068
7.79134 17.5188 40.2513
7.78839 17.5655 40.3831
7.73786 17.4755 39.9808
7.61176 17.2991 40.1212
7.70202 17.5319 40.4633
7.63819 17.3598 40.2645
7.61632 17.3329 40.331
7.66306 17.5718 40.997
7.65585 17.3888 40.4505
7.57125 17.2915 40.4366
7.60698 17.3916 40.4423
7.53907 17.3935 40.7629
7.50802 17.21 40.3347
7.48181 17.2821 40.6541
7.46408 17.2505 40.7502
7.45596 17.1282 40.2289
7.35725 17.0989 40.488
7.42172 17.2383 40.6251
7.30159 16.9819 40.3011
7.28732 16.9912 40.5396
7.32161 17.0258 40.4768
7.28179 17.0861 40.735
7.20389 16.8498 40.5187
7.24401 16.9023 40.5321
7.22108 16.9292 40.5488
7.21379 16.9256 40.4485
7.15008 16.9262 40.7984
7.16748 16.9907 40.9122
7.12258 16.8593 40.9543
7.18269 16.9441 40.7175
7.07245 16.7302 40.4633
7.09416 16.9813 41.0451
6.99587 16.7099 40.8651
7.0021 16.6553 40.7432
7.03337 16.7821 40.903
7.01442 16.8211 41.0545
6.92039 16.5211 40.5366
6.91941 16.5909 40.7416
6.92494 16.6744 40.8531
6.88623 16.649 41.0395
6.8795 16.6205 40.9139
6.85147 16.549 40.8593
6.82021 16.5169 40.9339
6.8144 16.5629 41.0289
6.85201 16.7522 41.5086
6.81043 16.5398 41.1131
6.75139 16.4682 40.8527
6.70335 16.465 41.2514
6.75012 16.5158 41.2698
6.71552 16.389 40.8442
6.64489 16.3946 41.1599
6.63655 16.374 41.2599
6.61115 16.229 41.1288
6.67538 16.3835 40.9075
6.57128 16.3758 41.3044
6.56883 16.3544 41.2811
6.50498 16.1205 41.0552
6.52726 16.2183 41.1858
6.49507 16.138 41.1751
6.53233 16.2595 41.2331
6.45159 16.1328 41.179
6.43484 16.1003 41.3486
6.4637 16.1196 41.1134
6.40846 16.0543 41.1416
6.39586 16.1153 41.47
6.41262 16.1483 41.4988
6.36797 16.0132 41.3023
6.37776 16.1604 41.7976
6.38216 16.0336 41.1288
6.30374 16.1192 41.8338
6.33603 16.0566 41.8567
6.38601 16.2279 41.9581
6.33928 16.2255 42.2714
6.35797 16.4179 43.1285
6.47359 16.8831 45.0336
6.58221 17.8035 55.4725
9.57445 22.5907 48.9681
6.49927 16.983 44.3123
6.43787 16.5785 43.2812
6.30974 16.3035 43.0277
6.29095 16.0913 42.0233
6.13173 15.83 41.8917
6.15172 15.9033 41.9225
6.10109 15.7084 41.4527
6.06416 15.7639 41.75
6.04865 15.7173 41.6659
6.01682 15.6008 41.3456
5.95823 15.578 41.7515
6.02035 15.65 41.5667
5.95363 15.554 41.4953
5.93996 15.4908 41.2752
5.87652 15.5009 41.6715
5.89677 15.4452 41.5324
5.87356 15.4296 41.4124
5.82273 15.3327 41.5971
5.88963 15.4595 41.6341
5.84022 15.3149 41.1003
5.77585 15.3787 41.6276
5.76858 15.1566 41.2661
5.80946 15.379 41.6433
5.81408 15.3809 41.4046
5.72545 15.3388 41.8733
5.75902 15.2593 41.2573
5.66748 15.1721 41.6175
5.70464 15.1934 41.4594
5.66471 15.1418 41.5025
5.65726 15.071 41.2055
5.58263 14.941 41.1987
5.63981 15.0984 41.2714
5.60913 15.0821 41.3133
5.57931 15.0526 41.3289
5.52767 14.9344 41.2139
5.51311 14.9606 41.4743
5.53278 14.9866 41.4946
5.51306 14.8837 41.3114
5.50355 14.937 41.5018
5.49815 14.9208 41.3879
5.46984 14.9546 41.6626
5.45026 14.8105 41.435
5.45922 14.8644 41.4451
5.4001 14.6789 41.1535
5.42146 14.8858 41.6284
5.40505 14.7125 41.16
5.36602 14.7746 41.5667
5.39214 14.7811 41.5141
5.3835 14.8053 41.6113
5.36323 14.7483 41.4666
5.33583 14.7811 41.7407
5.32599 14.649 41.2236
5.27858 14.7206 41.7726
5.28846 14.5993 41.3683
5.24643 14.5158 41.1674
5.22574 14.5508 41.4189
5.23463 14.5464 41.3407
5.1962 14.429 41.1863
5.17591 14.4803 41.4652
5.20384 14.546 41.6574
5.19469 14.4783 41.4821
5.17241 14.4548 41.4496
5.1579 14.3927 41.1202
5.11082 14.4121 41.6326
5.13564 14.3876 41.2592
5.09726 14.375 41.4423
5.09673 14.3769 41.4554
5.07238 14.2523 41.1903
5.06604 14.3663 41.5677
5.06608 14.2882 41.2022
5.01667 14.299 41.4727
5.00682 14.1681 41.121
4.98444 14.3189 41.9441
5.03238 14.1728 41.2771
4.98637 14.2217 41.5306
4.99131 14.2663 41.6867
4.97359 14.1943 41.5384
4.95223 14.1714 41.5531
4.95712 14.2134 41.8175
4.95512 14.1254 41.2394
4.87791 14.0412 41.531
4.90115 14.0446 41.3493
4.87286 13.9977 41.3742
4.87955 13.9838 41.0171
4.81464 13.9957 41.5932
4.85665 13.9962 41.3971
4.83263 14.0044 41.6693
4.85636 14.1038 41.7419
4.83622 14.0269 41.6458
4.82246 14.0423 41.7767
4.81525 13.9773 41.417
4.74401 13.8399 41.5441
4.76231 13.9068 41.5723
4.7393 14.1389 42.8317
4.75158 15.2395 58.547
7.50269 19.402 45.5494
4.72866 14.1922 42.1715
4.71671 13.9525 41.762
4.6932 13.763 41.3366
4.67741 13.8062 41.4135
4.64764 13.7203 41.4051
4.64083 13.6917 41.4489
4.65459 13.6997 41.3373
4.61917 13.6348 41.2909
4.62622 13.6689 41.2831
4.58987 13.5779 41.1792
4.56296 13.4933 41.058
4.56076 13.5809 41.3101
4.54976 13.5479 41.381
4.55025 13.4797 41.009
4.51193 13.5008 41.4722
4.55936 13.5493 41.2397
4.49393 13.4138 41.1218
4.48878 13.4395 41.4515
4.52215 13.498 41.3255
4.49705 13.4634 41.3328
4.49188 13.4914 41.563
4.48276 13.4082 41.2688
4.46424 13.3971 41.2473
4.4402 13.3603 41.3999
4.45327 13.3768 41.1471
4.41787 13.3707 41.5266
4.44628 13.3514 41.1655
4.42358 13.49 41.7076
4.40776 13.2689 41.2595
4.38519 13.3195 41.4821
4.392 13.2366 41.0362
4.35076 13.2554 41.3222
4.37918 13.356 41.4957
4.33041 13.1974 41.4846
4.36629 13.3107 41.6497
4.36626 13.3341 41.609
4.31386 13.1191 41.2839
4.33039 13.2123 41.2677
4.29747 13.1883 41.4757
4.28777 13.0936 41.1098
4.26857 13.0704 41.1185
4.25425 13.1039 41.2432
4.24026 13.0503 41.2869
4.25412 13.1409 41.4891
4.25173 13.1496 41.6266
4.25242 13.0575 41.2691
4.21429 13.0084 41.3765
4.21521 13.0151 41.3301
4.19134 12.9191 41.296
4.20928 12.9713 41.0494
4.17939 12.9579 41.1581
4.16072 12.882 40.9658
4.13753 12.8629 40.9774
4.12124 12.8433 40.988
4.11663 12.8601 41.4197
4.15575 12.9252 41.3303
4.13533 12.8559 41.1988
4.12226 12.85 41.0758
4.08746 12.7691 41.0353
4.08333 12.8177 41.2515
4.08635 12.8003 41.1422
4.07316 12.7441 41.06
4.06774 12.7898 41.1251
4.04161 12.67 40.848
4.01843 12.6485 41.1937
4.06029 12.7716 40.983
4.00301 12.6429 41.2861
4.04567 12.7456 41.4231
4.03396 12.6935 41.1167
4.00472 12.5888 40.7267
3.97468 12.6982 41.2489
3.97242 12.5484 41.0578
3.99102 12.6602 41.3173
3.99392 12.6783 41.0969
3.94066 12.5375 41.1893
3.96911 12.5511 40.7657
3.90499 12.4924 41.0699
3.94457 12.5735 40.9766
3.90878 12.4297 40.7847
3.90371 12.5205 41.1205
3.91919 12.5457 41.0239
3.87099 12.3487 40.7617
3.88056 12.4665 41.0686
3.87938 12.4224 40.9361
3.86685 12.4258 41.0765
3.85644 12.3535 40.8515
3.84345 12.3999 41.1751
3.85447 12.3367 40.9532
3.85241 12.3882 40.9796
3.84646 12.3956 40.8811
3.81869 12.3574 40.7199
3.77811 12.3155 41.05
3.79042 12.3423 41.2048
3.79105 12.4177 41.5935
3.80269 13.9574 61.3168
6.11857 17.1115 43.625
3.79554 12.6348 41.0308
3.74577 12.4194 41.4536
3.77878 12.2634 40.8402
3.75026 12.3264 40.9595
3.72521 12.1767 41.0636
3.75809 12.2762 40.9887
3.73029 12.1438 40.7071
3.71498 12.1369 40.59
3.68373 12.1021 41.0478
3.73629 12.2154 40.8386
3.68531 12.08 40.9428
3.70255 12.127 40.9434
3.69398 12.1324 40.9183
3.69339 12.126 40.9482
3.67375 12.077 40.8688
3.64825 11.9708 40.6631
3.66298 12.1096 40.9653
3.65292 11.98 40.5932
3.62479 11.9695 40.6203
3.61971 11.9199 40.6743
3.6264 12.0122 40.9927
3.64138 11.9836 40.6294
3.5978 11.9381 40.5326
3.59814 11.9307 40.7015
3.5882 11.8547 40.4108
3.56986 11.878 40.5464
3.57101 11.8877 40.7245
3.57081 11.8665 40.6546
3.55616 11.8199 40.6859
3.57261 11.8266 40.2644
3.5175 11.827 40.6975
3.55023 11.816 40.5812
3.54246 11.8802 40.9682
3.54975 11.7623 40.6275
3.54471 11.8691 40.7489
3.52051 11.7886 40.7162
3.52101 11.7922 40.5842
3.51127 11.7726 40.6878
3.50967 11.757 40.536
3.4875 11.7669 40.5386
3.46501 11.6407 40.6312
3.47303 11.6054 40.4568
3.48057 11.6971 40.3277
3.45392 11.6567 40.44
3.45117 11.6055 40.4213
3.44626 11.6748 40.6756
3.47096 11.7069 40.6294
3.44101 11.5799 40.2429
3.41345 11.5379 40.0765
3.38716 11.5349 40.5139
3.43323 11.6572 40.5835
3.42105 11.546 40.2742
3.394 11.5381 40.3374
3.3984 11.5121 40.1395
3.38684 11.5794 40.5343
3.39384 11.5432 40.2222
3.35806 11.4972 40.3419
3.37433 11.5372 40.7586
3.39358 11.5189 40.3375
3.35795 11.447 40.4091
3.36881 11.524 40.437
3.33927 11.3566 40.1507
3.34997 11.4201 40.0888
3.32633 11.4522 40.3497
3.33039 11.4839 40.5641
3.34091 11.3912 40.2891
3.32231 11.4096 40.5374
3.33913 11.443 40.3037
3.30742 11.4022 40.7437
3.34296 11.3889 40.2702
3.30577 11.4213 40.4334
3.30061 11.3649 40.3433
3.29579 11.3682 40.4083
3.30742 11.4324 40.4538
3.28094 11.3017 40.5064
3.29642 11.2651 40.1014
3.27153 11.3814 40.2356
3.25315 11.338 40.6263
3.28087 11.3399 40.4035
3.26701 11.3695 40.6486
3.27428 11.3521 40.8554
3.28566 11.3571 40.6921
3.27202 11.2867 40.3134
3.24341 11.2778 40.2594
3.2278 11.3417 40.8808
3.27321 11.3658 40.7604
3.2621 11.4303 41.1256
3.28447 11.3869 40.6937
3.24562 11.4327 41.2351
3.26617 11.3603 40.7966
3.24833 11.4881 41.3794
3.2769 11.6332 42.1953
3.34127 11.9162 43.7134
3.47505 12.6114 45.9016
3.57522 14.1271 65.3373
5.31301 16.0896 46.4536
3.54901 12.7062 44.5267
3.45951 12.05 42.5638
3.32182 11.7585 42.2329
3.29535 11.4729 41.3282
3.23703 11.3301 40.6817
3.18209 11.2825 41.0818
3.20683 11.2204 40.6208
3.17327 11.2631 40.7173
3.15715 11.0556 40.3226
3.15511 11.1495 40.3473
3.12392 11.0275 40.2167
3.13216 11.0108 40.0096
3.10205 11.0362 40.3595
3.12552 11.0185 40.042
3.09364 10.9506 40.2159
3.11214 10.9948 39.8485
3.08224 10.9988 40.0429
3.07286 10.9352 40.2382
3.09903 10.9216 39.9142
3.06853 10.8628 39.6089
3.0497 10.8001 39.5826
3.04369 10.8399 39.9287
3.05883 10.8622 39.7185
3.03906 10.8132 39.6707
3.03365 10.8004 39.6512
3.02833 10.7735 39.4496
3.00682 10.7433 39.8442
3.04923 10.8861 39.651
2.99923 10.7218 39.6193
3.01681 10.7993 39.6894
3.00857 10.7417 39.7341
3.01667 10.75 39.2226
2.96872 10.7065 39.6617
2.99339 10.6468 39.3849
2.97654 10.6946 39.7293
2.99765 10.7742 39.5842
2.96844 10.6436 39.7118
2.99154 10.6639 39.6326
2.97796 10.7541 39.9045
2.99611 10.7039 39.3059
2.94443 10.5536 39.3465
2.95071 10.6127 39.3787
2.94042 10.5618 39.1958
2.93484 10.5908 39.3153
2.9297 10.552 39.4343
2.94002 10.5638 39.4002
2.93592 10.6243 39.4981
2.93863 10.6045 39.4445
2.92511 10.4803 39.1326
2.90884 10.5231 39.3555
2.9193 10.5431 39.2278
2.90447 10.5234 39.2852
2.89717 10.4826 39.5396
2.92371 10.5356 39.3889
2.90402 10.443 39.0618
2.88623 10.424 38.8634
2.87386 10.4881 39.3652
2.89588 10.5114 39.143
2.87203 10.4548 39.3932
2.88682 10.4054 38.9427
2.85624 10.4412 39.2188
2.86083 10.3975 39.1581
2.86312 10.4118 39.9238
2.93984 10.6855 39.464
2.87241 10.4057 39.1235
2.85427 10.3837 39.1959
2.85834 10.4268 39.1584
2.84566 10.3283 38.7823
2.81599 10.3025 39.0041
2.82488 10.224 38.7183
2.81522 10.2943 39.0887
2.83935 10.3475 38.9819
2.82738 10.3648 39.128
2.82473 10.277 38.8246
2.81023 10.2864 38.9499
2.81504 10.3637 38.9889
2.80485 10.2545 39.0173
2.80664 10.2093 38.7197
2.78609 10.2783 39.0711
2.81111 10.3105 38.8337
2.78472 10.2452 38.9498
2.7966 10.2464 38.7394
2.77647 10.2101 38.7455
2.77462 10.1799 38.7372
2.77344 10.2967 39.2027
2.80201 10.2973 38.8313
2.76401 10.1891 39.0295
2.77657 10.1457 38.704
2.76008 10.1324 38.7244
2.76775 10.2572 38.5631
2.73455 10.1505 39.0284
2.76384 10.1667 38.7084
2.75533 10.3152 38.8732
2.74745 10.3778 39.0725
2.74787 12.308 64.3632
4.59906 13.8563 39.4154
2.74323 10.4516 38.8603
2.73663 10.222 38.7786
2.72878 10.1174 38.6909
2.72964 10.125 38.7961
2.73848 10.1605 38.7515
2.73044 10.1241 38.7114
2.73039 10.1813 38.7804
2.71799 10.1036 38.8413
2.72421 9.97553 38.289
2.69589 10.0223 38.4054
2.69805 10.0512 38.7043
2.71058 10.0549 38.612
2.69996 10.0475 38.6878
2.70447 10.0469 38.4943
2.69132 10.0064 38.471
2.68946 10.0509 38.3925
2.67837 10.0076 38.5515
2.69168 9.91693 38.2551
2.66736 9.99572 38.425
2.67755 9.957 38.4431
2.67587 9.99004 38.5437
2.67627 10.0202 38.7991
2.69314 9.9863 38.4595
2.66817 9.96125 38.528
2.67576 9.97901 38.5726
2.66476 9.90764 38.3903
2.66849 10.047 38.6398
2.66935 9.98046 38.7272
2.67625 9.96808 38.4981
2.65644 9.8994 38.5484
2.66496 9.94812 38.2937
2.64085 9.88621 38.5137
2.6643 9.95128 38.4486
2.64152 9.93793 38.5466
2.65099 9.87325 38.3525
2.64394 9.91169 38.4732
2.64753 9.90526 38.5103
2.64714 9.91473 38.3984
2.6367 9.87895 38.3485
2.62735 9.84878 38.3193
2.62921 9.83884 38.1904
2.62106 9.88782 38.3994
2.6259 9.84989 38.1415
2.60701 9.78608 38.2601
2.6114 9.82028 38.2038
2.61013 9.80592 37.997
2.5965 9.77483 38.2409
2.60821 9.80167 37.9523
2.58376 9.77193 38.1644
2.59565 9.79036 38.1917
2.59907 9.74727 38.0358
2.5924 9.80407 38.2901
2.60233 9.72703 38.2334
2.60609 9.82918 38.1177
2.59343 9.77198 38.0328
2.57729 9.75429 38.1817
2.58853 9.73145 38.2007
2.58864 9.79697 38.1741
2.58162 9.79243 38.1604
2.57775 9.70029 38.1223
2.57904 9.70544 38.1177
2.57814 9.73914 37.9634
2.56531 9.69128 38.1592
2.58131 9.67628 37.9274
2.56327 9.77408 38.0646
2.56326 9.69124 38.186
2.57692 9.75481 37.8493
2.54725 9.67513 38.3572
2.5843 9.72215 37.8825
2.5463 9.67155 37.8009
2.54203 9.63736 37.7754
2.54349 9.7022 37.9153
2.54294 9.62979 38.0732
2.55511 9.64274 37.9279
2.54634 9.71423 37.9603
2.54455 9.67333 38.196
2.557 9.65999 38.0014
2.54797 9.71592 38.1219
2.55545 9.6808 37.8536
2.53641 9.63404 37.7433
2.52261 9.65103 38.0755
2.54597 9.64259 37.8464
2.52283 9.60015 38.0199
2.53868 9.58872 37.8371
2.52709 9.58886 37.8981
2.53399 9.70665 37.9614
2.53207 9.62972 37.8445
2.52768 9.64028 37.9757
2.5328 9.6144 37.8503
2.52227 9.63885 37.8061
2.51584 9.56993 38.0477
2.53556 9.69615 37.8127
2.51544 9.74865 38.1526
2.52788 9.87287 38.0432
2.52283 12.0182 64.9958
4.28408 12.8084 38.111
2.52124 9.94317 37.8811
2.51355 9.7397 37.975
2.51366 9.65433 37.9969
2.52531 9.68682 37.9064
2.50806 9.60456 38.0574
2.51536 9.56768 37.6971
2.49296 9.51332 37.9954
2.52259 9.57705 37.6013
2.48773 9.53954 37.8034
2.50573 9.59385 37.8351
2.50829 9.61241 38.22
2.51766 9.5853 37.8756
2.49807 9.58789 38.1379
2.52126 9.5529 37.9055
2.504 9.5857 37.7243
2.48846 9.51033 37.8996
2.50055 9.50961 37.5739
2.47847 9.49761 37.6104
2.47926 9.45985 37.5136
2.47462 9.46313 37.739
2.48706 9.59008 37.9769
2.4902 9.5299 37.8111
2.49199 9.5368 37.8803
2.4913 9.58193 37.7638
2.4845 9.5177 38.0998
2.50451 9.5414 37.4954
2.46457 9.49001 38.0648
2.50316 9.50204 37.6313
2.47626 9.53323 37.8438
2.48437 9.50442 37.7189
2.47948 9.44176 37.6489
2.46826 9.54675 37.8512
2.48105 9.4213 37.5675
2.46348 9.41973 37.42
2.45487 9.50652 38.1063
2.49811 9.58687 37.5913
2.46383 9.44621 37.6764
2.46721 9.50008 37.7744
2.47346 9.50578 38.0697
2.494 9.46946 37.5547
2.46292 9.53011 37.8681
2.47572 9.41579 37.6262
2.45781 9.51651 37.678
2.46016 9.44316 37.7233
2.47072 9.45141 37.7766
2.46569 9.45013 37.486
2.44848 9.5312 38.0829
2.48848 9.53371 37.6202
2.4596 9.48747 37.7922
2.46417 9.45618 37.729
2.46682 9.45907 37.7593
2.46391 9.50649 37.9202
2.47548 9.42898 37.4046
2.43568 9.47692 37.8316
2.46842 9.58999 38.091
2.48405 9.45619 37.5511
2.44979 9.40749 37.6243
2.45418 9.42328 38.02
2.47919 9.55846 37.9274
2.46888 9.54653 37.8128
2.46732 9.46632 37.8502
2.46145 9.41936 37.7428
2.45976 9.42284 37.6261
2.45708 9.49153 37.9658
2.46876 9.48996 37.9317
2.47072 9.45471 37.9373
2.47478 9.49821 37.7782
2.46165 9.54884 37.929
2.47147 9.45365 37.5749
2.45005 9.52146 37.9879
2.47074 9.51646 38.2321
2.48648 9.52625 37.8853
2.46347 9.44489 37.9007
2.46569 9.55396 37.9874
2.47289 9.49892 38.3115
2.49231 9.58079 37.7578
2.4611 9.50602 38.4878
2.50095 9.63863 38.247
2.48585 9.54713 37.9864
2.46762 9.50004 38.135
2.48335 9.60415 38.2984
2.48668 9.57744 37.8594
2.46034 9.56396 38.1787
2.48237 9.55181 38.3318
2.49216 9.66247 38.7659
2.51771 9.64773 38.5752
2.51038 9.64476 38.5555
2.50018 9.70437 38.7959
2.51929 9.75333 38.9107
2.53027 9.79473 39.4008
2.56159 9.93605 40.0784
2.59881 10.2715 41.0094
2.65808 10.4906 42.5982
2.75827 11.2988 44.1649
2.8533 13.5099 69.3984
4.43744 0 0