# pn-170911/RbIIR-47-KOKB-1280-1959.psd
# Power spectrum* (dif=0,1,2) (really just |FT|^2)
# NOTE: only the first half! (symmetric)
# weeks: 1280-1959
# 7 clock-days, 0 excluded
# PSD: 1441
1098.17 0.0522201 0.0717684
158166 2.39278 0.0394258
313209 3.49237 0.0399891
62867.8 2.27756 0.0362593
58768.2 3.80525 0.0414042
31749.3 2.01491 0.0387261
3445.54 0.660245 0.0387742
5824.71 0.540118 0.0420304
7176.54 1.21423 0.0378195
4300.05 0.917543 0.0407721
5542.67 1.59254 0.0416349
2609.13 0.862675 0.0353059
1666.13 0.791664 0.0416714
2496.14 0.985799 0.038651
2104.16 0.923647 0.032364
1768.9 1.02278 0.0354224
3424.1 2.4848 0.0410668
1612.75 1.8906 0.0409132
1379.16 1.27702 0.0442595
958.885 0.679415 0.0372764
1455.32 2.56212 0.0368033
1629.62 1.98775 0.0341546
1507.1 1.81587 0.0391348
1544.86 3.46374 0.0569536
1677.92 2.79944 0.0515511
1016.44 2.59671 0.0526553
474.709 1.48295 0.0458391
638.97 1.718 0.0579025
331.64 0.979174 0.0490013
1277.56 3.40879 0.0550156
1497.11 5.02963 0.0795634
798.849 4.72657 0.0625386
503.641 2.68672 0.0514451
1099.11 7.70888 0.0468546
2181.83 9.49484 0.0944101
830.561 4.86189 0.0930726
1052.65 7.39382 0.101461
1785.73 9.08343 0.0805814
1530.01 9.89543 0.12882
1636.42 9.52784 0.117127
655.819 5.60272 0.0560559
916.255 7.47397 0.0517273
730.157 5.1736 0.0707192
1952.61 13.7776 0.239054
1062.63 10.1587 0.202416
613.399 6.4726 0.0742433
1179.42 11.0546 0.113241
1273.6 12.7638 0.145921
1004.11 11.8938 0.133741
869.366 8.06337 0.211514
1282.22 14.3823 0.194471
2328.44 27.5576 0.446503
1477.03 19.0491 0.282498
1038 14.3622 0.204598
232.766 3.97676 0.116757
1401.99 18.6425 0.315737
2141.37 34.6247 0.58453
2336.14 36.4615 0.385528
1151.44 15.3137 0.173269
1391.39 19.8068 0.301993
1872.75 31.3294 0.536243
1093.23 17.8513 0.440318
1132.9 17.1959 0.322609
1560.75 26.5574 0.491785
984.233 18.6805 0.477704
689.451 11.1624 0.269397
1185.49 24.8916 0.556751
579.277 11.5307 0.324256
727.342 14.1068 0.347089
453.895 8.21966 0.257315
1593.82 32.146 0.90973
1194.29 30.4082 0.897014
330.261 7.85017 0.266931
629.058 15.7126 0.290355
1079.8 23.3458 0.617712
1443.89 33.3677 1.03016
677.109 19.555 0.737277
568.146 17.0034 0.654383
1526.61 41.4227 1.26965
665.713 19.1163 0.509884
858.711 24.2975 0.632481
605.756 16.8111 0.604881
1014.6 28.1982 0.982039
575.907 16.4649 0.77536
1182.99 37.0026 1.42856
499.229 16.7993 0.702916
357.333 10.9446 0.370414
565.509 21.8145 0.999456
657.653 23.5412 0.862512
512.059 17.9734 0.615024
892.634 30.9614 1.38251
315.064 9.84669 0.395792
433.057 16.987 0.918826
431.469 18.5583 0.840995
448.675 17.1187 0.907867
508.373 20.0824 0.905242
664.536 28.9697 1.53821
323.52 15.7229 0.666313
368.794 15.3957 0.77213
522.926 25.547 1.46357
658.287 31.861 1.45707
459.904 23.7581 1.11052
766.712 31.3966 1.57882
423.185 19.5128 1.15153
515.962 26.1364 1.51599
295.239 14.2659 0.808041
537.688 24.7928 1.34724
293.394 15.404 1.04249
342.138 18.0202 1.23992
218.582 14.5361 0.830977
439.75 22.6208 1.55776
248.791 13.5991 0.801076
462.282 29.3772 2.03282
354.18 21.3444 1.18562
496.959 29.3313 1.78693
430.046 32.0084 1.92391
144.08 7.5265 0.508455
328.012 19.6346 1.12384
528.3 30.869 2.42048
140.608 8.94313 0.633506
477.157 30.9464 2.2411
188.931 12.728 1.00304
394.201 28.6321 2.39849
270.218 19.492 1.52327
577.397 40.4618 2.89691
703.901 49.291 3.91989
305.636 19.544 1.78049
386.319 31.1355 2.3967
297.318 21.2391 1.9976
248.482 19.5258 1.60913
305.022 25.1847 2.12034
204.869 15.0477 1.42659
250.48 21.2368 2.09552
392.922 34.8957 2.55463
180.621 14.9259 1.30761
326.336 28.0119 2.68307
262.694 25.0122 2.34161
220.327 17.9179 1.56345
231.153 21.4372 2.19771
264.049 24.43 2.56478
401.193 43.347 4.64255
124.513 11.4619 1.63041
299.72 32.5456 2.70157
309.254 23.8943 2.07173
183.065 18.9563 1.93221
94.1293 10.3003 0.940059
238.308 22.6602 2.46891
170.428 17.7327 2.31051
290.554 30.3337 2.9073
238.242 27.853 3.06804
148.368 18.9917 2.02021
351.26 36.4957 4.08932
237.323 30.2245 3.42264
190.51 22.6778 2.35761
217.504 25.0329 2.77522
276.882 35.1681 3.96501
111.901 16.8648 2.29257
264.846 27.0032 2.69569
39.9986 6.58812 0.942945
127.528 15.9184 2.4745
164.745 18.5103 2.29234
178.721 16.7941 2.06511
173.243 23.7104 3.31233
158.03 20.8121 2.91223
207.577 25.081 2.3577
186.883 26.735 3.52033
234.727 24.8315 2.9978
144.272 22.2046 3.55046
112.272 12.81 1.06371
202.919 27.3154 3.11249
169.779 22.9371 2.96521
110.318 16.9809 2.49125
219.757 31.1758 3.96029
147.627 15.295 1.96451
199.639 27.8051 4.13767
134.427 23.4791 3.76908
81.3422 10.6889 1.42538
80.0982 10.3664 1.3557
199.619 36.1424 5.35151
74.4581 12.296 2.12938
79.6715 9.12034 1.34766
137.758 24.3855 3.87135
150.084 20.5921 3.21639
56.9641 11.873 2.38587
103.778 16.3605 2.32733
51.6526 9.38247 1.75242
105.749 17.4501 2.73696
107.478 16.0942 2.48057
106.723 19.4821 3.40141
165.498 29.6898 5.35905
135.486 20.9313 3.53576
108.738 14.3218 2.20246
161.006 23.1003 3.83918
51.2601 10.914 1.9291
131.154 18.3477 2.87759
73.9501 13.6194 2.32992
69.6119 13.2404 2.32505
89.1356 10.8559 1.78031
160.161 26.2736 4.84448
132.025 21.362 3.73074
127.633 25.8431 5.37531
85.9931 15.1206 2.99065
49.8042 7.33235 1.21724
65.828 12.6938 2.57502
72.6221 15.1044 3.26149
61.0762 9.29524 1.25645
135.596 22.3153 4.41294
95.4688 17.355 3.79284
72.7399 14.6069 3.13578
66.0411 15.7388 3.49892
83.8697 14.8186 3.30235
104.214 19.475 4.84309
63.8057 12.928 2.09867
65.4555 14.5506 3.30052
194.385 38.4101 7.39692
73.2754 13.1424 2.44084
71.8061 15.3334 3.30151
92.7458 18.8553 4.16219
75.745 16.5886 3.85419
68.3906 16.6433 3.62085
29.4791 9.99868 2.44269
41.3044 8.65554 1.79819
66.8951 14.1503 3.26712
79.9148 16.9209 4.71316
39.886 10.7986 2.59683
38.6118 10.0188 2.55766
45.6935 12.6771 3.80227
143.689 32.5152 7.4325
77.4262 15.7341 2.90027
44.6457 10.8689 2.7611
79.8279 18.0953 4.86992
66.5254 17.3802 5.10128
72.4364 16.699 3.86902
77.3441 20.6441 5.2718
101.258 22.3512 5.46723
88.9897 20.6118 5.00479
68.2877 17.0786 4.7339
132.677 31.086 7.64973
79.7978 21.3365 5.14003
109.882 26.5998 7.67428
59.4129 13.1123 3.64891
47.9795 14.9213 4.45459
63.8595 14.7419 4.1905
56.9628 13.8653 3.8467
49.8191 15.2768 4.70225
80.3814 23.8707 5.64876
76.0127 22.2092 5.72209
111.895 32.1535 8.76452
36.252 8.58644 2.64641
51.7933 14.7337 4.6379
57.1478 15.8174 4.30156
46.8076 14.4789 4.51156
53.1268 18.6894 6.49064
110.938 29.7031 7.36508
94.4498 33.8344 10.1417
62.5005 19.1786 5.73411
47.4389 10.8666 3.07159
51.6107 14.1326 4.32799
100.794 33.1483 9.90177
63.8559 19.2724 6.66883
69.681 22.1119 7.59826
143.017 42.7415 13.0323
55.0806 15.9182 5.11225
50.8734 18.9557 5.83447
36.4317 11.8274 3.97279
100.909 30.1514 10.597
89.5434 30.0093 9.16506
52.1385 17.3093 6.16718
36.7444 10.9659 3.20625
42.485 12.884 4.89977
21.3054 7.16676 2.63238
43.2774 13.6293 4.50892
29.3117 12.7091 5.20993
75.1132 23.3044 7.39859
69.3698 24.9339 6.82716
54.931 20.8175 6.16505
57.6385 24.8388 9.05951
55.5517 18.7668 7.63674
54.2837 22.7898 8.13565
73.2065 20.8707 7.03594
23.8428 9.25284 3.58294
102.406 36.4044 13.4917
40.6374 12.8334 4.83985
93.4314 34.1408 12.0264
38.9786 16.5002 7.73874
43.7036 16.6922 7.3466
66.9894 21.5766 8.08995
43.6487 18.8253 7.44341
47.5091 15.3981 5.06798
20.1304 10.2659 4.5227
82.2025 37.1058 13.5514
50.1326 17.0978 6.36913
38.7445 11.3043 3.7083
35.5411 14.1387 6.21509
39.6744 15.5282 5.3947
46.5877 18.0754 6.21967
67.5846 29.2439 14.1279
46.7607 17.1725 4.94823
49.4214 26.5104 10.8887
50.4237 22.8623 9.97933
63.0444 23.3043 9.24868
41.2141 15.1183 6.96645
45.6274 22.4696 9.55116
33.0826 12.5208 4.9818
49.1236 21.509 8.67037
48.21 22.5792 9.00587
59.8436 23.6472 10.537
44.7773 13.1849 5.1247
76.2767 31.1957 13.131
33.2799 18.6638 9.03856
30.3485 13.4237 7.1942
42.4623 15.5453 5.32814
48.2393 20.6482 10.6873
60.05 25.914 11.7494
54.5162 25.7384 12.3598
29.2095 14.6452 7.08246
30.4896 11.2927 4.83507
47.3244 18.2463 7.10782
65.0695 25.357 11.5519
38.4268 14.8908 6.51225
38.4583 16.5842 8.36122
40.5125 16.6011 6.98615
48.9071 24.2967 13.8225
32.1891 15.9693 10.4102
28.9875 13.8321 8.07305
34.8055 15.5875 6.13859
37.2422 14.6078 5.65284
37.2552 21.1211 9.63767
41.4253 20.6792 12.4473
40.5382 15.9927 5.46287
14.3819 8.59904 4.52459
25.2859 12.9187 7.49769
32.7385 15.5154 7.43548
37.2585 19.323 11.0467
50.3551 24.8347 12.1222
29.55 16.0648 8.73741
32.5451 18.9533 10.5177
42.7149 27.5945 15.871
64.9779 29.6199 15.8436
16.3168 11.8747 7.92826
23.4848 9.19831 3.68466
37.3895 16.9522 8.36931
52.0257 28.9164 12.485
14.9966 10.3265 7.59247
56.1754 29.1018 16.3919
66.2134 37.6552 18.8844
30.9807 20.3506 10.1861
19.0409 12.2976 7.72537
38.674 21.4411 11.3055
36.783 15.4335 7.26828
22.8197 13.7636 9.86881
36.4618 16.8163 8.00024
39.1263 25.0143 14.1476
63.5034 37.8469 19.9225
32.2145 20.6648 11.9126
25.2879 14.0874 7.90044
25.2385 12.8499 8.49858
52.0355 34.626 18.9621
40.1311 21.1152 11.4938
34.0686 22.1395 13.4109
25.9829 10.57 5.88244
30.6019 20.2612 13.4767
20.4913 11.8746 7.95587
17.4031 12.8418 8.91363
57.4604 29.5804 15.5028
22.97 14.8982 9.05538
12.43 3.11645 1.35062
60.0445 34.9625 19.4995
46.2069 26.6399 17.6996
24.5939 16.5125 12.8081
33.2974 18.9262 7.89071
24.0511 16.7707 10.2341
17.314 13.8116 8.03973
25.0171 17.9094 10.1548
37.5162 23.6624 16.4155
34.1657 21.6022 12.8665
27.0106 19.8672 12.8028
17.7098 12.5148 7.87669
16.6034 14.4916 10.135
25.2756 25.4625 19.2977
32.0304 23.0151 17.3301
44.5487 20.6713 11.6884
31.1985 21.4874 17.8853
88.1141 46.0303 23.7866
36.3768 20.1291 12.5131
18.5315 11.5941 7.05779
29.9301 18.9519 12.7771
32.6901 15.8749 9.32025
43.8178 26.6863 18.2367
11.1327 8.98727 8.68166
41.817 27.2315 16.7497
19.9812 15.2016 11.5126
16.451 11.1855 6.47528
11.6507 10.2814 8.1292
15.5706 11.0376 8.82506
16.6628 15.9583 14.2269
34.3126 15.9029 7.06431
17.2768 12.734 11.7883
31.8325 20.06 12.8832
43.4773 27.7551 17.5638
18.9672 13.7072 13.5769
22.2122 13.2111 11.2535
135.226 81.7744 49.2785
26.0671 23.4311 20.6781
21.6858 13.5343 8.31236
39.1659 32.6564 29.4521
21.2513 10.5896 4.96652
24.5905 15.0556 9.68209
26.0137 16.7413 11.627
19.5667 15.1453 12.2265
23.7866 15.5699 10.5817
19.5077 16.6597 14.9761
31.1834 25.5199 16.8519
36.1845 28.1943 20.0099
21.1407 15.1526 13.684
30.6489 18.079 11.0512
29.2806 21.416 17.558
14.8175 13.9118 13.1271
8.34355 8.45932 11.2392
20.5184 13.4 9.1632
8.96477 9.73336 10.7029
39.7208 23.4299 14.441
22.2529 17.0254 11.7806
18.5778 13.593 9.59874
13.176 9.94685 6.85069
22.3605 15.8373 10.0452
18.3336 15.8463 12.6193
24.4907 19.6741 18.1878
41.5073 34.5485 25.4731
25.7548 17.8871 12.4818
13.904 17.0971 18.868
18.1989 15.8204 13.1999
22.6812 24.9994 23.1194
14.2674 9.46798 8.22225
15.7052 7.63986 4.76194
24.2008 22.1224 18.4131
23.4471 17.0372 13.4718
25.769 14.515 7.33185
12.3062 10.2265 9.62777
36.0251 29.362 22.4708
23.1613 21.6241 20.044
16.833 18.2277 19.2694
20.9499 17.8294 17.2562
34.1107 25.0021 23.2109
15.6878 9.7029 7.34843
15.0955 12.2206 9.92698
15.0789 11.1445 6.53279
8.99402 10.0311 7.24158
12.1392 15.2687 14.8325
16.9002 14.9736 12.9189
7.6768 7.40632 10.1024
13.5857 10.0425 7.24968
10.434 6.07669 3.94019
18.396 21.5057 18.6799
9.5449 6.09743 7.25588
38.7383 35.3125 28.6852
20.6315 14.8118 14.4201
11.1443 10.7024 10.0298
21.8253 17.8843 16.4624
20.3091 19.095 20.1852
27.9344 25.9817 24.4782
12.1875 10.1922 11.697
12.5982 9.94222 7.99575
19.4757 19.2921 16.2637
17.5669 18.1651 15.5622
16.1865 16.6206 18.8953
19.291 14.1403 10.9511
23.4301 30.7541 33.6299
27.6892 19.2792 15.2761
16.0975 14.0055 9.83939
11.5724 15.4233 18.1203
17.8366 17.3913 13.9483
9.21703 9.25046 12.6226
16.7336 11.468 9.41431
16.2034 12.4725 10.3765
20.0983 20.9544 18.314
33.1953 43.3438 49.8726
18.2705 14.6369 13.7003
22.7736 25.2871 20.6374
21.4606 32.9439 40.6192
27.189 16.8089 15.0952
24.3757 15.7122 11.7289
18.1119 15.2211 11.5098
31.5757 37.7945 42.6209
31.4846 25.5287 25.7478
6.95088 5.55357 4.41228
5.81746 7.66148 9.58227
6.28974 6.47097 11.0567
28.9666 29.2053 28.5356
24.9122 24.0653 19.7353
7.75589 15.0279 21.0883
13.9156 23.421 47.7218
93.0981 74.6362 49.5832
27.4531 31.1181 29.6612
7.80961 8.57641 14.748
35.9983 33.2599 26.6814
15.271 19.9533 24.3254
34.642 30.2185 27.3551
23.2943 26.1077 29.4958
12.6518 11.1874 12.3349
21.118 33.1792 49.6368
28.4232 23.0565 15.8017
9.4572 15.0832 19.9701
15.0197 13.6396 15.8169
20.7333 21.6062 17.5314
5.49268 8.93434 15.7175
19.9216 21.0327 20.0741
10.9055 10.8235 14.3362
15.7656 15.5053 19.0197
29.9118 33.5608 38.4252
7.80895 4.20131 3.55462
13.9712 15.4163 12.5158
19.3374 34.2928 48.0197
32.3172 23.6786 17.0424
6.35857 5.13128 4.88861
12.5249 14.0755 15.4263
25.8084 35.3387 36.1085
6.78052 12.2553 20.5664
25.0886 25.6165 29.0199
35.9169 45.0263 54.7686
22.717 30.5163 54.7067
64.9239 60.8413 53.1375
22.3115 28.9764 35.756
23.8294 26.4411 24.3849
10.6113 15.5304 21.734
19.0832 18.5236 16.4138
7.17931 13.8533 20.7833
18.0719 22.7899 21.863
12.3178 14.8049 17.3909
5.39111 5.98031 11.5274
14.9025 14.9125 12.5305
6.938 8.84371 11.8316
16.8928 27.2964 36.5759
13.5242 12.2185 18.0861
20.3513 19.8779 20.6702
14.1947 15.8776 19.4531
15.8679 18.4428 22.9292
12.5563 17.18 18.7943
9.41398 14.1982 18.8336
12.1578 13.7548 15.2136
8.58599 14.3216 18.4519
10.5442 11.6695 18.4883
8.35803 11.3659 15.1793
15.078 16.7257 20.0511
13.2297 15.8384 17.539
9.1263 10.0896 13.8319
8.83191 11.9182 21.0536
14.4958 16.8783 15.5365
15.5543 20.9472 23.8623
14.7586 14.618 15.4358
19.6841 26.8522 30.928
8.02503 9.06726 11.4549
3.1362 5.16492 8.15285
9.36232 13.4939 20.6031
11.0599 10.889 11.4156
7.74106 15.0742 21.9163
8.36377 8.35345 14.056
21.4077 28.1218 34.3564
13.8473 18.628 28.1566
24.7167 26.675 32.4516
21.8214 28.3268 37.15
18.4367 22.6296 26.1985
12.8015 16.4836 20.7087
7.77247 10.2657 15.4686
13.0759 14.6945 21.5968
10.6521 10.5566 9.42455
10.1395 16.3464 27.8523
20.191 20.1425 22.4987
6.2312 10.3175 14.5539
8.26779 10.5401 11.3314
9.35989 11.5542 17.4163
11.0718 17.8184 26.7944
18.3074 17.0147 15.0746
15.6455 19.543 23.7967
12.6247 15.5945 20.1142
9.50037 15.1905 23.2695
14.4507 19.9947 28.26
11.3118 22.8269 41.2852
20.9154 26.8556 31.3919
9.66506 13.4514 20.3614
11.1844 15.7658 20.0932
5.76562 14.9333 27.8105
11.0389 13.9684 25.202
4.7607 4.15948 9.28586
15.2493 22.6475 29.0633
13.6518 18.2001 27.16
13.6986 12.8036 17.8934
21.4318 25.6557 27.9873
20.7509 23.5531 20.4155
11.1528 22.2164 38.3166
6.06689 13.4333 29.0611
16.714 23.098 26.8558
10.7414 18.0715 35.0713
13.7754 22.3962 31.4247
9.02139 9.03017 11.3875
10.9259 19.4003 32.0997
11.1389 8.32166 10.1734
11.9059 20.2627 24.4971
9.67566 13.8373 16.9753
8.89918 11.0989 13.4094
8.78244 16.5231 25.2554
14.7491 19.1217 24.3638
14.6374 23.8458 31.0318
5.78857 8.40268 11.432
6.35579 13.6727 25.7297
8.37835 12.7035 20.7755
6.65365 14.1798 28.0476
9.71006 12.7547 28.6968
25.3282 37.026 45.7071
21.4154 27.3761 33.4301
18.5048 26.4465 30.474
7.1409 10.8305 15.5992
12.7321 23.8787 41.4678
5.45138 4.63916 8.23816
8.96737 15.0549 25.5924
7.46003 13.9892 23.0166
8.86651 13.0319 21.9254
6.02118 9.43311 16.2326
12.9606 21.1015 32.812
10.5908 15.2648 22.0958
8.11628 14.688 26.3194
12.0141 16.1226 17.3288
6.43458 13.8633 27.7913
8.13045 12.1769 21.5312
9.0166 10.858 12.3889
5.58577 11.7732 24.0731
14.4557 23.0045 27.0737
12.9498 31.8405 53.8197
8.92665 11.1005 17.8465
11.8062 24.1326 38.5801
10.3163 14.6637 30.3996
11.0725 14.7466 27.5143
17.1835 19.9851 25.2342
7.81933 15.5232 33.1961
11.6894 14.3882 19.7732
6.75483 11.7902 23.009
9.05302 13.3388 17.9835
11.0132 18.2851 24.2361
8.83109 22.4789 37.6737
9.69728 10.6129 18.8101
11.5244 21.8766 30.5616
9.23434 14.8294 23.1279
5.8957 7.82724 16.3484
6.68592 16.4554 31.8721
14.2065 11.9309 9.53641
8.45246 18.499 33.9236
8.47775 11.7948 24.7598
7.58823 10.1563 17.5882
7.73888 14.3387 17.4052
5.01704 11.7082 26.9038
6.98638 10.2317 15.7572
9.11129 18.0712 30.9422
6.87656 8.52572 16.469
18.559 29.3063 35.1577
6.82659 14.9314 26.4522
8.0224 20.4015 42.4558
6.68893 8.47682 17.4183
8.2893 9.06595 17.1089
6.40459 14.3087 29.3861
9.50606 12.5345 17.1975
5.53016 8.75635 17.3224
13.0492 23.1666 34.9242
8.56121 14.3339 28.7179
8.09502 14.9313 28.3519
7.53349 13.4423 28.9804
14.1618 17.0887 25.4267
10.9982 19.64 26.7762
5.83525 11.1894 19.4421
9.8202 20.9449 36.4372
10.2731 16.4166 27.3138
6.25166 11.2148 26.9473
3.85433 11.2513 48.4336
28.6549 38.802 44.7334
2.38697 5.11186 11.1787
7.21511 15.4287 35.5786
7.269 10.4565 12.6425
6.11758 12.0703 19.3506
9.04425 19.4777 43.0437
12.1031 17.6152 29.1438
12.994 22.038 28.4538
10.622 23.5378 50.4601
5.95625 7.89023 19.5045
11.1125 24.6619 43.8267
6.71623 13.1683 30.4417
12.816 16.8029 27.1797
6.19192 12.4075 28.4154
15.9979 27.3192 37.4172
11.3005 23.0676 40.2458
8.41071 23.2621 50.8483
8.14546 9.31606 18.8392
10.0027 18.6065 40.0422
22.5132 32.8502 38.2544
6.41427 17.9888 41.396
4.26456 5.85763 14.5782
3.5813 4.86893 11.7343
6.34545 9.61204 17.4877
4.89877 10.727 20.2128
3.97385 7.41304 18.5205
7.1114 13.2881 23.3347
8.87308 21.6818 56.6823
8.98726 13.1874 25.1407
5.53433 8.57433 17.7125
7.7345 14.9232 14.2222
3.04485 13.1667 32.497
9.18897 15.6939 31.0901
12.7216 19.8968 33.2125
10.242 24.3667 47.9009
10.4361 21.3883 43.4442
11.5134 23.334 33.5962
5.94257 15.6259 31.8751
6.55467 12.6089 32.4093
8.8007 14.3782 29.2671
9.05597 16.3276 28.331
7.12246 13.921 31.5295
8.74931 20.766 42.1117
5.69343 9.69298 19.5736
4.85846 8.60315 15.5475
10.3564 25.3288 54.9737
9.78952 18.2614 32.1945
5.91265 11.2739 34.0895
9.21411 12.1091 32.7438
12.9086 18.7987 24.1497
4.85158 10.7555 29.1693
9.01882 14.3065 19.3917
6.77959 13.404 24.795
8.75317 16.6592 24.2728
3.04109 12.069 37.9981
8.31181 11.6722 27.1889
9.13268 15.7625 30.4476
9.81623 20.3404 30.4313
7.17607 15.2082 24.1702
4.21184 9.85766 19.8639
4.12141 8.54287 25.6191
9.29925 22.3311 35.0766
5.62124 11.8268 15.2318
5.07524 18.0962 42.7725
6.97053 21.0526 65.5319
14.6747 20.1377 38.4752
10.1841 16.9441 31.0777
8.98701 12.832 20.4216
6.61026 12.6724 30.9416
7.11938 10.4758 18.2648
12.4075 31.789 49.2782
9.58192 31.1686 67.0534
4.66519 6.1282 18.4821
9.09679 23.5321 36.9894
6.84299 17.4267 31.1302
3.84409 8.67043 15.9169
3.27687 9.89942 25.0926
7.45548 17.3475 31.083
4.82192 10.7091 26.7615
5.33827 12.178 32.7615
6.8741 17.0598 42.0566
12.6763 22.649 35.7707
3.50874 7.63825 20.961
5.29227 8.79643 16.2039
4.62 12.8574 40.4476
11.3718 25.457 38.1991
3.56899 6.75342 16.7886
5.61858 19.4892 50.9009
9.16815 13.0965 25.3244
6.72497 14.1473 36.6271
16.1879 40.3484 69.8575
7.0981 11.0023 23.2343
4.73099 13.5425 38.9933
6.81151 15.6718 26.8925
7.25894 18.8706 44.6509
6.60322 9.97448 25.3045
7.55335 13.9508 29.2518
5.14289 16.3316 47.3391
5.80029 9.11822 19.2261
6.83417 19.9895 56.9138
9.40708 16.9313 32.7029
6.58239 14.6419 27.7922
4.09068 12.9098 41.8905
8.49404 10.7567 16.7513
4.3891 10.32 37.1849
8.49509 14.5496 25.5785
7.8204 10.309 19.9187
11.6776 30.0216 62.817
9.02271 24.5963 42.3875
6.39146 12.86 30.8487
6.79439 15.5097 31.2856
5.26601 18.1456 49.807
11.0895 35.6135 80.364
9.50524 10.3217 25.9563
8.62058 20.9515 42.1963
6.33333 15.6321 48.3561
8.08819 9.81029 13.695
3.84924 13.3832 30.2364
6.19066 10.9843 28.5458
9.16422 20.7986 43.2203
3.98165 8.35614 37.8964
14.3279 20.8903 23.0858
3.46203 12.071 36.2539
4.89197 9.98723 30.1819
5.87399 15.0155 27.5736
2.37828 5.99615 18.0267
2.69744 5.87525 24.2276
3.96358 7.37883 13.3769
4.76538 9.84764 17.1153
3.92389 14.9787 48.6055
6.75046 13.7969 39.5101
8.60541 14.8756 26.6749
5.27073 11.654 26.0797
6.30908 19.5822 48.0746
9.72719 17.2941 30.7793
3.5237 8.2596 26.0467
6.73543 10.604 21.4692
3.55573 8.71889 17.9321
4.50813 15.516 39.7586
5.60433 10.3794 19.2655
4.31155 8.40308 23.2906
2.46274 7.96167 24.1478
4.58206 11.7202 32.3396
8.85302 21.8518 49.7758
4.3384 11.3313 39.2255
9.95256 21.5396 43.7945
5.90277 11.7222 24.4442
6.71964 17.3473 39.8765
7.38432 16.6001 30.4227
3.85685 15.8582 41.1369
7.87333 19.1163 44.4887
5.09291 9.96379 9.96729
2.7798 14.9645 30.5045
3.30372 14.2041 51.787
10.2871 26.0602 65.0188
8.44977 12.5409 33.9827
10.0427 25.3405 49.7378
2.87495 9.82759 41.1654
5.57822 9.45564 23.8855
3.53732 10.0856 35.986
4.00843 3.30714 26.1414
7.58817 12.5981 23.299
8.61053 20.7164 28.2333
3.32231 10.8965 34.0582
6.88962 13.6854 29.948
3.59796 8.7764 29.8589
4.72094 7.74393 13.7082
5.78625 19.0192 43.4168
3.92808 8.76779 25.5492
3.85342 15.1701 46.8171
8.27789 11.1831 17.0587
3.93638 13.5441 47.223
6.62713 13.3317 14.641
1.22307 5.46141 16.9915
3.64569 14.6944 50.1418
8.0225 14.2618 29.8143
2.81119 5.90746 15.8058
2.79859 9.80016 31.5201
6.51481 11.9041 28.8855
5.86147 16.4576 30.8054
3.38592 11.9105 36.2384
4.70419 10.8658 40.1352
7.2955 10.831 23.2878
2.82401 5.45143 12.7425
2.67429 7.23506 24.129
5.16845 15.7296 32.9291
4.11977 6.74596 16.9196
4.7721 19.8809 54.8046
6.96991 13.4607 35.48
4.63785 3.71889 8.96011
5.66471 18.7775 53.0132
7.18045 10.9604 26.0982
3.71734 8.19063 15.6756
3.2379 9.42661 23.2076
5.70992 17.123 52.5301
5.88351 12.7273 31.6507
4.25053 3.91215 24.8247
10.203 24.0965 24.4027
6.03846 31.9185 82.3719
5.58008 12.3213 43.2471
6.99817 19.4615 50.7432
2.35791 2.72142 24.3085
4.70745 6.78317 20.138
3.47293 8.8908 21.9854
3.4957 8.60231 22.485
3.31014 6.83651 11.6906
4.22934 22.4674 68.7977
6.17332 6.99773 12.7222
1.14847 7.76367 36.8996
5.52483 9.13583 22.2831
6.6116 21.6411 48.4068
6.67764 14.9939 43.4105
4.49862 9.19033 19.9633
5.08871 14.7104 31.8931
2.79576 11.0298 47.5634
7.17887 13.4069 41.7324
5.73311 12.9058 29.8915
4.12932 13.7936 36.7118
5.58084 14.1957 26.3631
3.29011 13.0688 53.2573
4.38058 8.28093 30.8538
6.01308 8.80058 28.3449
5.70478 16.3158 32.948
6.46469 14.0624 37.0541
6.1926 21.9464 40.5962
2.69859 2.3767 10.0045
3.65606 12.9214 37.5145
3.28247 9.23883 37.3997
5.70725 10.5413 16.5506
3.27128 8.73028 22.9608
2.79723 10.8253 26.8409
3.15122 8.61798 24.7547
1.70812 4.49237 14.8164
2.01142 10.8464 64.1994
11.36 28.4761 47.6125
3.09964 6.85051 24.6441
3.06919 5.13206 14.4468
3.99843 11.8244 41.1751
4.54517 11.8637 39.2924
5.6103 8.14492 10.1566
1.66435 7.46186 18.9108
2.849 7.96485 13.2743
0.944677 5.97723 23.2962
2.66105 6.91281 25.0776
3.35224 10.0628 31.9464
4.75487 9.21348 30.6913
3.83884 3.7331 21.8077
7.58421 16.699 23.5245
2.16295 10.8737 36.4553
4.94596 9.71835 25.5489
3.84419 7.85184 23.0108
4.00466 15.0955 57.028
4.61184 7.00496 23.8153
5.11104 20.3821 43.2492
4.86207 10.0243 23.5002
3.41311 8.0842 19.2619
2.69248 8.64771 23.0218
3.28668 14.0234 34.5805
3.5742 12.224 46.0633
4.93552 8.59338 13.5843
2.47022 11.2097 33.7402
1.63296 3.71496 22.9003
3.1264 6.55359 17.8338
2.12073 9.8429 48.663
6.6227 11.5574 23.916
2.82114 6.76703 31.1573
5.38524 8.40435 20.5263
3.67704 9.91338 31.5836
5.55813 10.2005 16.6524
2.8176 8.01009 17.8205
3.02451 11.3529 37.3138
4.08046 7.20315 18.7616
4.37263 13.5693 43.5763
3.09278 6.9995 20.9247
2.33518 9.43285 32.5645
3.85674 12.0637 28.0908
3.22055 6.77184 21.3598
1.91189 5.19026 29.3189
6.26093 16.7457 33.933
3.01704 7.63173 24.3656
2.61203 9.39024 31.7889
4.10216 6.06312 17.4435
3.51359 6.5274 20.1155
5.19844 13.3201 30.034
3.96447 17.8115 57.5114
4.69007 8.22333 27.418
4.09086 10.3688 28.4466
2.81088 10.0017 29.0007
2.58187 6.91387 24.903
3.37631 13.1614 35.3746
3.90799 13.0012 35.9429
4.63042 10.1682 14.1387
1.68198 10.7127 36.3718
4.69738 15.6951 52.3906
5.54118 11.1257 46.3961
5.15237 8.63689 22.9045
4.51582 19.0875 43.9252
2.29816 4.52774 22.6303
3.07361 8.28667 16.0988
1.57306 8.48671 19.795
2.42714 19.7754 70.0405
6.59048 10.6509 31.8921
5.51531 14.6283 47.5956
4.38259 7.55462 28.8955
6.3131 14.341 24.1442
1.58373 5.86375 22.5429
2.75411 7.75307 12.6039
1.63366 11.8367 46.2015
4.04756 8.66274 23.8446
1.87335 4.08667 17.3438
3.31846 8.88668 28.7377
2.38814 7.61135 20.2224
2.17943 7.92733 34.091
3.63942 13.1859 29.7647
2.98126 7.10115 18.5843
1.03782 2.47266 24.328
4.40344 10.771 29.2509
4.14238 18.0024 39.8085
2.89214 8.38219 34.846
2.97745 5.42385 19.9306
4.27469 18.8823 68.2892
5.03495 10.764 18.7538
1.09317 7.46018 56.3006
6.70813 18.1583 38.8884
2.22777 8.12015 53.9044
6.97189 11.9335 8.78163
2.19715 12.6748 37.2812
4.46675 12.3956 35.3119
2.37443 10.5491 56.0771
3.92934 7.58755 20.0315
1.74738 4.15971 25.4451
3.95824 15.693 40.7754
3.34766 12.3747 49.6303
3.8324 9.95578 21.5353
2.30793 9.41294 46.9911
6.1913 9.41226 12.1664
2.09776 7.61636 31.6266
4.97757 16.6083 39.7253
2.80702 8.80624 27.9097
1.77869 7.06621 27.5338
3.53897 10.4513 32.0249
3.08863 8.77599 26.0067
3.4212 11.2723 39.7377
3.02239 6.56277 11.0411
0.977568 7.97378 19.4341
1.55399 2.82186 21.6183
3.28886 7.35602 25.8264
3.40663 10.0487 21.8189
2.16076 9.00004 25.4553
1.39163 5.5937 22.7192
3.84056 16.6639 67.8675
6.52958 18.4167 51.1124
3.48183 8.65141 18.9409
1.69207 8.78945 43.3488
3.76817 6.96113 13.1962
2.90944 15.0742 49.0145
4.25828 15.1327 49.4188
5.06221 15.288 37.0747
2.39607 10.0623 24.0107
2.34226 8.07819 26.8153
2.59844 10.018 18.0826
1.03058 8.07687 32.9256
2.91178 8.76955 43.976
4.78941 5.1336 12.2526
2.25323 5.83918 23.994
3.13773 9.05265 37.3274
4.28626 12.811 38.9167
3.98636 9.43919 31.6286
2.7699 8.84103 19.0295
2.29075 8.10805 27.0732
1.77958 5.82051 24.5228
1.92765 4.34182 22.4507
2.23045 3.4762 17.7175
3.55991 10.9289 16.9475
1.24035 5.4991 24.2721
2.57135 6.94151 26.7747
2.13203 9.70772 33.0397
2.51685 6.03704 30.7897
3.88665 10.9785 13.669
1.75938 8.82346 32.3164
3.14856 11.6885 18.905
0.73325 7.80738 36.7425
2.70962 3.56383 18.7626
3.11377 9.47541 35.9695
3.08611 7.67434 18.5513
1.86634 5.70641 23.2714
2.25491 9.98428 38.795
4.16535 9.11525 35.4452
3.71699 13.4184 27.2432
1.90836 7.51288 21.968
1.58382 8.93828 38.4328
3.05442 6.28456 23.0143
2.55015 8.67492 35.7523
4.49148 14.0903 27.8239
1.20137 3.57917 13.9895
1.41777 9.03958 29.6952
1.99006 7.72457 32.7579
3.52292 16.9278 47.1508
4.55307 11.6684 38.9462
1.85479 5.60551 35.0699
3.87698 19.4325 62.7132
5.85306 13.6683 32.2513
1.65941 11.6238 88.1834
10.0207 15.9595 19.791
2.63108 16.7012 52.3181
4.91879 15.1913 34.4775
2.20093 11.469 63.6967
4.77221 11.2201 35.9595
2.28815 4.73129 26.9658
2.26214 7.1577 24.0013
2.20322 6.99197 20.552
1.94089 14.1569 44.878
4.41304 12.8859 28.216
1.84937 10.465 40.5585
2.65319 4.97372 23.0854
2.56552 10.9888 39.8632
3.88323 7.98628 37.2636
3.3288 8.43049 12.9222
1.70465 10.8388 47.5006
4.81239 13.7757 38.8012
3.98216 9.17246 22.1508
2.11973 8.59616 19.7068
1.31946 8.04926 39.391
3.77998 7.74704 25.0349
2.2509 3.53702 25.2743
3.8572 12.2013 32.578
2.44973 9.92398 42.9444
2.80368 11.4665 22.1061
2.00842 8.66922 34.5867
2.79636 3.89896 24.3542
3.70061 17.1485 50.8394
2.79362 6.11777 13.0255
0.782495 8.18653 35.7337
2.62773 6.074 28.6492
3.48702 6.92901 22.9798
1.88398 3.68392 18.5313
1.8134 10.0552 59.4377
5.09475 14.8815 20.7689
2.01684 5.88382 22.8682
3.13089 11.9269 30.647
2.23335 9.05467 34.0391
1.99353 7.98232 59.9993
6.5584 12.437 22.5503
1.86474 8.00781 29.1384
2.73681 12.0141 51.5895
3.69366 11.9466 23.0627
2.32546 8.86993 40.88
2.6635 8.71531 15.2134
1.52554 4.78451 29.0479
4.39166 16.2718 40.0678
2.50967 6.52097 29.7432
2.74663 8.3389 24.5329
1.95025 9.10563 30.5202
2.17872 10.818 45.3153
2.55309 6.41156 45.2418
4.3338 13.4137 20.4953
1.58377 5.12561 27.53
3.11833 12.7799 34.9168
2.88007 9.21682 26.7543
1.4356 5.03245 23.101
2.21385 5.14876 21.7942
2.76916 12.3162 36.1979
2.92247 9.24182 25.5062
1.53783 11.8396 41.4154
2.84032 4.61491 11.1483
1.03671 3.93095 23.7128
1.51515 5.23975 20.781
1.61506 9.15193 34.0608
2.52464 4.65469 21.1777
1.7531 4.53846 27.9995
2.36211 3.56303 14.4296
1.4562 5.39864 28.4138
2.85907 7.36505 32.3416
3.45546 7.97478 12.0065
1.84237 10.8085 33.6558
2.47564 11.2123 28.3655
2.19718 9.73887 47.0421
2.50944 15.4718 57.1621
3.7628 4.51781 19.239
1.48537 7.82514 51.7025
4.79195 11.239 43.9832
5.28873 20.3405 63.7509
6.02771 20.5281 55.7203
3.86733 3.55899 7.14995
1.70547 11.2958 42.425
2.76796 9.2001 33.0289
2.7883 8.92761 43.5879
3.09168 10.4644 26.3181
2.22485 10.8381 45.7774
2.84509 6.03223 26.9451
1.81421 9.55383 42.4041
3.87318 10.4176 29.8295
2.31731 14.2991 34.789
2.72058 5.97516 19.4463
2.00835 9.63624 62.4548
4.87716 7.30784 28.4024
3.00678 13.6436 34.7987
2.43329 6.36618 22.9608
2.38647 7.28194 30.1465
3.09507 9.37733 26.0411
2.03683 8.32495 22.1376
1.64686 9.18844 22.4147
1.21934 4.89692 32.1529
2.30469 6.90086 26.4707
2.08712 5.78259 32.8253
3.66645 9.42591 19.1979
2.29069 11.6315 37.1863
2.23628 7.66832 33.5742
2.09132 2.85917 18.099
2.19706 7.03174 28.7588
1.884 10.5742 42.5304
2.11197 2.32218 15.6159
1.51103 10.0749 17.9403
0.980552 3.28349 21.4592
1.71451 4.58918 16.2627
1.53245 5.04514 19.0796
1.07371 8.3986 31.9611
2.4789 4.53773 20.3319
2.44755 9.97176 48.7078
3.21477 13.7534 34.9598
2.67233 8.15368 35.5389
3.26812 6.82605 12.6826
1.09406 8.5727 51.5585
2.70626 8.8147 25.1451
2.1563 8.482 44.5138
2.33408 11.3023 58.9302
4.44785 9.98701 21.9699
2.51546 9.19572 30.0398
2.0177 8.91093 22.1738
1.49691 2.34827 13.782
1.14448 3.37079 10.5951
1.14869 7.44836 55.6828
3.16707 12.4523 28.641
2.43963 12.6548 33.8885
1.99877 6.58423 33.9983
1.96871 7.91846 22.7414
1.60554 6.4235 24.8196
2.64156 8.32147 27.4845
2.81053 14.3158 24.7793
1.29349 5.81071 36.7042
2.41776 7.80027 27.1551
2.09677 5.42339 13.454
1.48483 6.54466 17.3841
1.20129 6.11735 28.4601
1.99302 3.3222 14.8936
0.970177 7.00692 30.1142
2.14852 6.42352 52.4443
2.75335 6.9839 32.6155
2.32928 8.4737 47.1248
4.04761 11.3935 31.3433
2.91614 5.35202 14.724
1.2862 4.85329 17.2302
1.57133 5.46396 16.4045
2.15383 13.376 42.8356
2.49968 8.18396 26.2381
1.52001 7.25455 41.0197
2.11343 3.47977 33.1265
1.91492 6.28917 26.0067
2.12911 15.5244 34.0044
2.05157 4.21543 29.2885
2.48132 6.20815 21.1328
1.89577 6.19728 29.4517
2.45987 10.7936 28.6827
2.46454 10.5421 46.5336
2.79549 11.3299 30.5148
2.47149 13.0078 67.9693
3.86519 10.0543 22.1834
1.53277 7.07222 32.0173
1.76444 4.71597 4.88876
0.360761 2.79217 34.9222
2.9572 14.6841 23.4809
1.84631 18.7541 50.3949
2.94932 4.40621 48.324
4.25842 17.1794 40.8703
2.65428 6.86129 13.3694
0.963426 9.8835 24.0957
1.36938 8.37218 56.1618
4.24949 6.13909 32.1552
3.2086 10.6443 47.7404
3.67424 6.38836 23.3632
2.26994 8.01087 22.7743
2.08916 8.42035 38.0842
2.40264 8.94689 22.5857
1.81885 5.02428 35.9773
3.26154 7.7778 38.6052
2.50897 11.6118 21.8727
1.19389 8.86634 47.1081
3.39146 5.94082 16.602
1.24507 3.86794 25.1042
2.09294 4.55202 25.8886
1.9195 6.22587 9.28193
0.738093 4.53391 14.9011
1.38208 7.5607 42.8764
2.93553 6.4683 24.54
2.19363 5.88062 15.8489
1.1634 1.06409 16.557
1.76012 6.06618 17.0297
1.33851 8.1286 19.2153
0.989866 3.28036 12.5234
1.13268 5.04878 30.4924
2.92092 9.79202 38.1454
1.96742 7.54826 26.8691
2.03869 5.19433 29.8182
1.84546 14.0993 53.8314
3.51833 6.62682 28.6678
2.38638 5.78114 22.4637
2.04711 8.60349 24.1967
1.65594 5.62797 22.6285
1.38868 5.76278 48.0352
3.67859 15.7074 34.0048
2.01921 1.94583 16.4913
1.55903 5.48516 29.2036
2.14898 6.915 22.6076
2.0074 5.85305 16.3797
1.77809 7.62597 25.2984
1.99914 8.66906 39.5454
2.71631 13.661 58.8694
3.91494 6.47594 14.6408
0.871708 3.91054 28.5268
2.39801 5.94345 32.9341
2.9692 2.98757 18.8902
1.95753 6.12652 31.2512
2.93775 7.17276 18.6428
1.71875 13.2688 43.8594
2.24785 6.55807 21.3551
1.14706 8.31144 44.159
3.17678 6.60399 16.6296
1.58808 5.06269 23.4516
2.04084 5.75983 34.3726
2.66386 5.17139 25.8167
2.81494 8.33682 25.3836
3.04413 16.6418 36.9983
1.94871 7.85974 24.3577
1.11079 4.80701 28.1116
1.47993 7.87584 14.8118
0.716167 8.63943 55.2269
3.47757 8.72759 49.9881
3.54555 10.0493 21.251
1.56232 7.07206 28.8377
1.38401 6.75761 22.3866
1.10076 3.85036 43.6746
3.00571 17.7487 39.5314
2.4794 12.0357 43.3279
3.02894 9.31134 16.1571
1.03986 5.94698 42.6415
2.84673 17.3858 54.3573
3.54994 5.72743 37.3233
2.80402 8.39646 40.3283
3.68697 9.00803 46.848
2.94138 4.0454 31.6166
2.50175 7.36769 32.1648
2.05272 10.0884 19.577
1.62269 13.2684 50.4691
3.73887 3.23955 19.8591
1.73257 6.43899 38.5432
2.7339 12.8754 30.562
1.76951 8.04332 50.5286
4.03914 16.2271 41.8038
2.22306 9.1343 20.8826
1.2838 8.21714 36.1253
2.73705 8.00192 19.2388
1.42965 3.55124 23.4925
1.83399 4.26532 42.9518
3.89837 6.36493 22.4362
2.14771 15.6661 51.302
3.51739 7.19326 25.9453
1.49231 4.65608 11.0322
0.912637 4.8598 25.1745
1.80573 3.31693 21.6708
1.87164 5.50613 23.2965
2.33898 9.56446 22.6627
0.958227 2.30218 23.9404
1.62438 5.78948 23.0649
1.91516 7.67215 30.4214
1.8912 7.3067 27.1653
2.47992 6.96244 39.2687
2.00942 11.5648 32.4248
2.69108 6.53521 26.7887
2.52053 7.55164 30.7987
2.40897 11.0124 49.6465
2.89385 8.99106 17.6322
1.4269 7.34951 21.9969
1.60452 3.41586 16.6023
1.54815 5.73281 27.8461
1.79008 5.68785 37.4751
2.90829 10.1204 40.3745
3.10869 8.29172 23.4569
1.38943 5.31941 21.107
1.96544 7.61878 21.7506
1.52473 5.99485 31.2092
1.95505 7.08728 14.226
0.78636 3.54686 33.154
2.28437 10.4446 24.3145
1.31583 3.17215 16.5541
1.11803 6.42601 40.3129
2.78713 14.8546 45.6522
2.46579 3.53595 12.3929
0.975385 1.95835 20.3582
1.61984 8.3705 26.4324
1.8054 5.69295 25.6678
1.76936 5.95576 23.1618
1.56079 4.12926 17.8208
1.01347 7.05476 20.8693
1.57647 5.80074 28.6322
2.3467 6.76792 24.7287
1.32115 3.84587 41.3464
2.08588 10.045 27.9631
1.95727 3.59873 44.9911
3.16792 9.26128 34.1901
2.93176 12.8198 25.2353
1.70359 6.55312 14.9885
0.70044 7.69232 42.3035
2.92752 5.35332 30.3261
2.12096 6.39662 28.6875
1.61916 8.20499 24.5188
1.40787 6.93478 19.5709
1.33148 3.97365 14.3393
1.00807 4.84853 25.4212
2.23871 4.60511 21.4435
1.34103 5.46091 22.2202
1.8655 5.61259 33.3836
2.46727 6.15426 13.4451
1.1869 6.3862 27.4231
1.89352 7.21289 25.2263
1.67698 5.28871 22.4503
2.23865 7.59036 34.3985
1.99139 5.19348 12.1199
0.598857 6.82243 19.8413
1.5109 6.73791 33.0357
2.46637 9.08298 24.5086
1.64926 3.39268 12.6148
1.12666 7.76886 45.6547
2.50452 6.00952 32.8339
1.59985 6.61458 38.3772
2.21465 17.0421 35.0566
2.98305 8.04967 30.8204
1.8651 9.045 58.1899
3.52423 10.5951 42.2288
2.8307 8.69459 15.8071
1.28908 10.1663 28.3995
2.12771 6.62884 42.7958
3.41706 9.08464 25.5465
1.75004 12.1755 76.5638
5.77898 15.5017 47.5531
2.55296 9.66111 36.9588
2.18702 10.742 85.1987
5.02169 11.6045 28.9304
2.0529 9.26512 29.7654
1.86422 4.54208 33.434
2.1149 14.782 38.7709
2.0925 8.63717 49.5781
4.06098 9.4406 21.119
1.75241 12.0045 40.9738
2.22597 8.85065 29.985
1.88561 9.66661 58.4674
3.24855 11.9085 20.1773
1.30951 4.16265 11.5194
0.724796 7.9665 65.3381
4.684 6.21592 47.8784
2.97732 14.0003 9.43705
0.872974 5.26055 32.5914
1.8729 12.4064 21.757
1.32815 3.15333 30.4681
2.16081 9.80326 28.1459
2.25428 7.42324 37.0218
2.74269 5.30978 26.7845
2.09446 12.0475 35.1969
2.40505 3.29502 14.0737
1.28914 0 0