# pn-170911/RbIIR-52-WTZR-1280-1959.psd
# Power spectrum* (dif=0,1,2) (really just |FT|^2)
# NOTE: only the first half! (symmetric)
# weeks: 1280-1959
# 19 clock-days, 0 excluded
# PSD: 1441
585.98 0.0584693 0.0118497
25822.9 0.517485 0.0119729
106893 2.04871 0.0131613
17963.9 0.605004 0.00994814
48135.1 3.18391 0.0119753
10891 0.956851 0.0139204
3803.12 0.5185 0.0102634
3107.03 0.622933 0.00986108
4727.66 1.3296 0.0124368
1662.3 0.577077 0.0128257
2508.62 0.978895 0.00961761
1334.82 0.606553 0.0120591
1089.66 0.586123 0.0127243
710.088 0.499073 0.0103462
589.245 0.478349 0.0103342
1038.84 0.801348 0.015143
945.962 1.05431 0.014313
595.768 0.570252 0.0112526
617.087 0.706813 0.0114034
333.1 0.485938 0.0152005
467.974 0.663686 0.0117972
522.647 0.766828 0.0114437
547.11 0.987784 0.0149573
316.946 0.708427 0.0128386
378.001 0.714708 0.00846571
442.194 0.918297 0.0160282
335.958 1.01444 0.0148283
271.82 0.697614 0.0111072
391.986 1.38381 0.0157696
225.744 0.721399 0.0189628
269.244 0.855089 0.0143478
254.005 0.812402 0.0174616
337.284 1.41936 0.0156275
241.832 1.03727 0.0176784
250.374 1.55049 0.0186519
198.08 1.1755 0.0223363
279.131 1.32784 0.0180801
284.362 1.58619 0.0157238
227.653 1.45609 0.0239319
177.339 1.45834 0.0201782
230.765 1.31618 0.0209653
307.76 1.90935 0.0247138
293.405 2.28741 0.0403295
187.629 1.47931 0.0231302
220.335 1.43503 0.01994
213.47 1.90355 0.0337273
199.087 1.94356 0.0323158
226.321 2.22408 0.0358066
181.814 2.06654 0.0468955
212.577 2.5211 0.0389974
199.458 2.27622 0.0304509
232.486 2.56436 0.045111
155.272 1.96445 0.0299206
156.012 1.79914 0.0321888
189.765 2.40094 0.0393684
209.655 3.0259 0.0675947
198.128 2.7895 0.0616585
110.169 1.57713 0.0409368
107.332 1.51445 0.0388791
173.121 2.9807 0.0620264
174.737 2.90737 0.0644303
178.754 2.95818 0.0698709
147.044 2.47351 0.0492215
145.799 2.7126 0.0756339
183.775 3.53802 0.079058
153.449 3.42889 0.0831142
174.213 3.23103 0.0840531
182.645 4.09882 0.09553
204.12 4.51487 0.0948091
157.551 2.98814 0.0683933
115.363 2.58166 0.0630247
118.619 3.07284 0.0825366
202.943 5.21733 0.148692
113.804 3.10093 0.0795377
112.792 2.857 0.074257
218.939 5.15493 0.125532
115.105 2.82356 0.0921164
182.764 5.03555 0.16504
196.11 5.8642 0.192027
139.238 4.30178 0.135455
160.64 4.58706 0.136172
185.373 5.40789 0.166305
164.926 5.24836 0.184089
176.853 5.4627 0.173175
133.089 4.10894 0.142985
81.2377 2.71874 0.0871472
120.53 4.38348 0.165584
139.676 5.08203 0.189043
108.571 3.62648 0.156486
155.383 5.43997 0.211211
141.074 4.97507 0.190844
146.485 5.59685 0.233862
145.833 5.17118 0.228948
134.163 4.86257 0.202697
199.122 8.34616 0.349557
164.07 6.97048 0.291672
151.748 6.53377 0.32385
119.567 5.08658 0.23519
151.034 6.67631 0.309394
122.552 6.09485 0.319397
110.779 4.9643 0.247976
175.578 7.73465 0.346033
136.34 6.69329 0.355056
169.104 8.30775 0.455285
173.566 7.81819 0.397138
132.468 6.93431 0.362139
42.424 2.18085 0.127867
198.553 11.1547 0.576894
170.433 8.43855 0.474195
118.46 5.81247 0.326098
99.3861 5.79144 0.348555
143.1 8.43604 0.511188
141.895 7.81645 0.470743
141.926 8.71946 0.569181
157.587 9.44169 0.604025
112.591 6.9125 0.425308
171.443 10.9582 0.746931
180.831 12.4095 0.781527
197.492 12.6286 0.825736
131.922 8.48058 0.564809
203.016 13.3323 0.906223
126.376 8.88957 0.661668
69.3569 4.64906 0.34516
140.347 9.63697 0.694573
127.057 9.32965 0.723802
181.733 12.6227 1.00364
122.409 10.162 0.783121
152.946 11.0849 0.840353
129.185 9.44301 0.674323
157.308 11.3019 0.915206
142.178 10.4348 0.865512
133.469 10.5543 0.871024
102.376 8.156 0.664891
164.816 13.7265 1.21487
119.019 8.96787 0.719443
142.801 12.4353 1.15072
104.789 9.4373 0.906755
141.185 12.1911 1.08783
99.3021 8.84256 0.798038
133.872 10.9512 0.950181
96.878 8.9935 0.796243
158.08 14.3921 1.35607
128.087 11.6826 1.06349
142.709 13.5994 1.3775
103.451 8.98557 0.910865
99.8917 10.2807 1.02682
132.72 12.7868 1.35324
97.1424 9.64475 0.982618
118.266 12.4417 1.41355
101.267 10.1911 1.07016
112.053 11.8969 1.35147
100.385 10.4985 1.03847
136.043 15.2373 1.60271
118.836 12.3419 1.40553
90.6497 10.121 1.24903
95.0432 10.4901 1.20692
132.47 15.5713 1.83467
98.7851 10.8385 1.36061
126.592 13.8075 1.60938
37.934 4.31755 0.531447
109.132 12.4648 1.54556
64.4494 8.12372 1.00853
107.209 13.4376 1.56012
94.6418 13.7545 1.98837
154.238 19.2158 2.5383
86.6824 10.8788 1.37784
104.562 12.49 1.61319
125.203 16.3499 2.19298
126.087 15.5591 2.00187
115.221 15.692 2.23961
99.8808 14.1947 2.1614
106.547 14.8228 1.902
97.066 13.773 1.79432
91.6007 13.3468 1.93778
96.7184 14.9033 2.23176
62.5606 8.29254 1.1257
98.8788 13.5891 2.05894
84.1259 12.5879 1.91241
121.145 18.1637 2.74626
77.8609 11.7518 1.80583
117.868 17.6539 2.66402
62.1997 11.1435 1.91234
85.4543 12.4719 1.80211
77.0489 11.8043 1.75472
79.1326 13.5277 2.12738
83.4519 13.2681 2.16792
119.319 19.5951 3.15672
96.5874 15.6859 2.66131
91.9222 15.8033 2.58023
103 17.0489 2.80624
73.1721 12.1665 2.1535
72.7446 12.027 2.12001
107.935 19.2649 3.28474
59.5329 9.63517 1.80766
91.5447 15.7288 2.67396
81.4641 13.7121 2.57902
119.697 20.431 3.64165
58.1671 10.6922 1.99178
78.7938 14.3754 2.63402
85.8282 14.8176 2.51045
78.2724 15.2503 3.1298
56.2716 10.7287 2.14761
89.4441 16.1835 2.95981
75.523 15.4921 3.20202
72.6113 14.784 2.91455
93.5183 17.3737 3.36854
64.7436 11.6262 2.04277
93.5604 18.9593 3.86401
66.1364 15.534 3.47423
66.1107 13.3749 2.956
82.4656 15.3909 2.94334
79.6436 18.4167 3.84629
72.2443 14.0472 2.85406
63.9554 12.8716 2.80605
74.2995 15.0128 3.20365
92.4307 19.0349 3.88374
78.9214 17.4897 3.80939
111.886 24.6635 5.29768
78.0955 18.6268 4.40968
91.0929 20.1597 4.40587
81.2686 17.2756 3.72477
79.2628 17.1304 3.75596
57.2325 13.4756 3.17929
98.2219 22.6775 5.14201
108.375 24.2236 5.45511
71.469 17.9884 4.36829
93.9762 23.1229 5.57367
83.3116 19.9973 4.88976
99.3558 21.5863 4.9798
84.2145 19.7468 4.62188
98.021 23.9078 5.9829
90.221 21.9026 5.29346
67.9242 18.2422 4.50603
98.9582 25.4037 6.39738
88.1627 21.5995 5.1093
79.9297 21.0465 5.66886
90.9674 22.6296 5.40206
49.8478 15.0813 4.29007
53.4231 13.2778 3.51022
77.937 19.6572 4.90406
85.3376 23.4103 6.3927
61.1731 16.713 4.80232
40.7971 10.6976 2.68108
76.2452 21.8996 5.85077
33.3987 9.31402 2.89257
94.128 26.9343 7.5188
80.3198 21.475 5.81889
44.4412 13.5781 4.27506
60.2125 14.998 4.07212
57.0398 15.4764 4.11391
32.3896 9.40542 2.8923
75.6053 20.2665 5.29387
65.9088 20.7506 6.52943
74.4645 21.3318 6.15738
59.3394 18.2811 5.86651
67.426 19.9895 6.24413
40.2784 12.9252 4.44541
65.6525 17.8357 4.80679
53.7488 18.0046 5.96718
65.3446 18.9332 5.88679
59.2086 17.9577 5.20715
69.5485 22.6477 7.49182
48.4641 15.151 5.08996
62.7045 18.8156 5.87213
68.9142 19.7624 5.56871
50.8896 15.5712 4.90963
52.5557 17.9073 5.84539
46.884 15.6071 5.39315
54.0011 18.0214 6.6491
70.6829 24.0793 8.06726
49.5507 14.8839 4.70274
37.7864 14.2676 5.10643
67.5756 23.1203 7.90331
59.8759 19.9712 6.57508
67.8452 23.0611 7.85832
45.6114 16.3845 5.58054
48.3534 17.6283 6.28722
41.1747 15.7096 5.96238
50.5172 19.7309 7.49089
61.3255 20.995 7.3767
53.7582 21.4632 8.43132
52.0079 15.0428 4.77148
62.6566 22.348 8.36958
91.7026 31.8274 11.1155
32.0156 13.8542 6.12881
70.5796 25.7708 10.0298
71.549 26.8299 9.77295
53.711 20.8836 8.22977
90.7558 34.6589 12.947
44.6405 16.7034 6.30838
50.5991 19.8144 7.69023
36.8897 14.3561 5.54292
38.8589 15.8398 6.3804
43.1139 16.6505 6.71939
44.1258 15.0266 5.25844
32.7496 13.8029 5.50777
40.2435 15.3612 6.23864
50.1861 21.7861 9.34364
70.0602 26.9696 10.7715
81.7849 34.7228 14.1637
46.8936 18.6074 7.67179
52.4445 23.4173 10.1075
45.7613 19.4623 7.72628
45.3049 19.566 8.61769
51.3237 21.863 10.0509
44.8467 19.9601 8.36932
49.0663 20.8192 8.70796
55.2797 23.098 9.43088
47.4183 21.1955 9.64286
50.0651 19.9558 8.33125
55.6817 24.2197 10.2479
31.8823 14.1498 7.06178
51.243 22.3778 8.8702
51.7507 24.3056 11.2369
51.2816 21.2684 9.34581
57.2933 23.3038 9.42816
56.6325 25.0793 10.6451
59.3905 28.9494 13.7377
33.1669 16.9573 9.27555
34.749 16.1765 7.71957
72.4219 33.3646 15.118
36.393 17.9911 9.27245
45.7035 19.5347 8.48702
46.9637 24.012 11.7037
66.1891 30.1106 13.4482
33.3713 19.0273 10.6087
28.8899 12.4308 5.8403
39.0108 19.3671 9.29766
49.9344 25.3042 12.8698
52.6696 25.7977 12.4452
42.3898 22.3428 11.3724
47.0409 22.3192 10.6927
33.562 15.6288 6.73128
34.7998 19.478 10.6363
35.2802 18.2718 10.6717
66.9857 33.0023 14.5175
37.672 21.5438 11.0194
41.3087 21.1963 11.2011
41.1635 23.1499 12.7215
53.2512 27.3543 14.9197
45.692 19.9205 8.95665
45.4942 24.9083 12.98
59.0194 33.1803 17.5837
37.5225 20.5501 10.9473
24.214 14.5278 8.7942
32.5216 17.864 10.0604
54.4029 29.7635 16.5689
42.3396 19.7851 10.4564
44.3285 22.383 11.5279
30.8316 17.2119 10.1525
48.7582 26.3206 14.3904
45.1971 24.7536 14.0459
41.8644 24.4899 14.6791
40.2931 21.1047 10.9473
23.1041 14.2704 9.03133
30.4053 16.5677 9.62753
39.0403 24.2223 14.8778
43.034 22.1469 11.8195
36.9246 23.436 14.6729
39.0337 21.3468 11.8046
26.0571 16.0128 9.25469
38.745 26.8609 18.0517
41.6315 22.7062 12.9187
53.4064 32.4112 18.6399
33.9139 20.9977 13.3214
31.1224 17.5438 10.2409
21.72 12.6982 8.05846
43.7933 26.3467 15.8879
37.711 24.278 15.3767
36.7604 24.9527 16.856
42.8042 25.4554 15.1996
37.1304 20.9938 12.5873
43.0519 26.1266 15.7784
42.7431 27.5459 16.8116
34.4226 21.7478 13.7046
35.0067 22.2499 13.6382
34.9846 23.468 16.1202
39.3947 25.3258 16.1391
31.3606 21.0363 14.7487
37.5149 20.572 11.8309
35.4008 23.578 15.4699
40.1573 25.2275 15.9938
34.1117 22.8588 15.3886
33.0676 21.1948 14.2196
61.1253 39.7575 25.0132
34.3148 22.3072 14.911
27.086 18.3036 12.6447
43.2391 30.2395 21.2959
32.8442 20.2857 12.9375
25.4674 17.8711 12.858
37.5731 23.4779 15.0035
25.0631 14.5801 9.26191
38.1688 27.4503 17.7946
20.6348 14.8308 11.1593
28.9117 20.8941 14.2716
25.1453 17.3147 12.8163
27.0418 17.903 12.1376
27.5077 19.5012 14.2973
35.0621 24.7705 17.8232
32.7196 21.6716 15.3477
37.6898 23.7678 14.702
28.5047 21.2341 15.8318
25.4169 18.701 13.9711
29.8317 22.2127 16.4571
30.4053 22.1059 16.1834
23.6267 16.8276 13.4529
29.929 20.1377 14.5522
37.2622 26.3389 19.5545
34.0003 25.2457 18.7053
44.9387 33.737 23.5633
21.6289 15.5893 12.6599
30.9011 23.2157 16.2615
26.4044 22.522 17.8048
21.0765 16.393 14.9244
27.7888 15.8916 9.47794
36.8361 30.2289 22.3649
24.7876 18.1644 14.0955
35.5883 27.9944 20.2335
20.8789 17.2717 14.5122
38.6924 27.978 19.9118
23.2848 20.5899 17.2237
22.072 20.4871 19.8412
38.9106 29.2193 22.7973
36.728 28.2656 21.1661
21.8417 19.2593 17.6163
24.5709 18.2708 13.7014
22.0796 15.8872 11.6882
25.4091 21.8192 18.4233
37.6261 28.6152 20.3755
27.472 26.4182 22.8819
26.3214 19.9002 16.1529
32.3964 29.703 27.5621
31.8755 22.0187 15.7174
22.5385 21.0307 20.0927
30.8956 25.9118 22.0169
27.9374 18.9052 13.1869
25.8326 22.1915 18.3908
19.927 17.7185 15.903
23.6762 17.0311 12.0461
18.1205 15.3806 13.177
18.1892 15.0391 11.8702
23.727 21.4142 18.2211
20.4688 17.752 16.4013
16.314 17.0651 18.1211
32.4179 24.503 18.7666
24.4597 22.1099 20.7676
33.9974 30.2956 26.1387
32.9895 27.5269 22.666
28.95 24.7482 21.6029
23.1357 20.9999 20.4518
37.6753 29.0094 21.9043
27.6225 24.7907 20.4961
27.6593 29.1182 28.5833
27.3519 25.0629 22.8707
23.4162 21.4363 20.279
26.1645 20.2718 16.3819
22.4358 21.2917 19.1464
18.2645 15.984 14.3786
18.165 16.6815 14.975
22.8369 23.0338 22.9296
23.2478 21.2938 19.1031
17.6116 15.8827 14.9909
12.5316 11.5469 12.4716
19.5836 16.901 15.4411
21.0476 18.6066 17.1545
21.8437 21.3293 20.2986
19.9021 18.7564 17.3276
21.1184 21.8774 22.2975
20.5659 18.3897 17.2192
22.8798 21.5419 19.4062
25.2028 28.886 31.3251
28.5527 26.844 27.1114
25.5455 21.4969 20.8168
24.8249 20.4161 17.4612
27.2788 27.8071 28.1869
33.1863 30.7758 29.1642
17.7621 16.0105 14.2164
15.2395 14.2751 14.203
19.2892 20.6136 22.016
31.6438 35.2043 36.8529
32.1562 28.6535 25.0072
23.4803 24.5204 27.6475
28.5684 23.7058 20.1525
13.3829 14.5738 14.8708
15.2906 16.7806 18.4573
13.9458 13.6041 14.4733
14.2336 13.1921 14.1087
21.5198 21.8891 20.9531
14.6229 14.8477 15.5169
18.0075 20.1189 24.0782
33.9853 33.6224 31.5394
17.2332 16.331 16.3966
22.156 24.7163 27.334
26.3796 28.9234 29.4553
19.7959 21.282 24.9132
20.2106 17.812 17.5982
24.2272 28.0645 29.7932
23.2545 25.7158 27.8343
24.4057 25.7019 27.4456
20.7699 21.7217 23.9999
24.4551 23.6949 21.2169
16.0808 20.602 25.7347
28.6449 33.1613 35.243
14.5759 13.5673 15.9442
10.6659 11.1471 16.1757
29.3974 26.0201 20.174
14.0285 16.9001 19.1741
19.3244 21.6045 22.9007
13.4469 14.3926 16.8773
13.3248 12.5609 11.5711
12.5152 15.9162 18.9667
16.1086 21.2484 27.1726
26.0776 28.1839 30.4372
14.7032 17.1088 22.1271
20.088 18.3085 16.272
18.094 25.44 32.9337
20.7675 21.2299 23.3768
22.8501 25.6495 29.1999
20.2002 23.9293 28.6164
24.8694 25.1293 24.3891
16.4349 18.5874 20.4329
15.0851 20.5091 25.39
20.9464 24.7905 28.2587
12.0758 14.6948 22.0117
18.8522 20.3471 23.8897
16.2454 20.1554 24.0133
18.4917 19.9346 22.6066
22.1766 25.5613 28.9212
14.335 17.7203 21.247
15.0594 18.9089 23.6923
15.3651 18.6653 22.6862
19.793 25.2181 30.6677
18.0216 20.0641 23.5511
12.6867 16.9942 23.1966
12.7357 13.1232 15.0607
9.35983 13.8244 22.0714
19.0255 21.398 24.6024
14.988 17.4969 23.3775
22.174 22.8327 23.2547
17.3508 20.5652 21.5821
17.2381 25.1758 32.7113
20.3005 24.1462 26.7319
12.2901 17.0806 22.0554
10.7274 13.7181 19.2864
14.4799 18.9124 27.5543
19.3524 21.3359 22.654
13.7022 18.7154 24.0142
13.9246 18.3151 23.9081
15.5009 17.435 20.3063
12.471 18.2291 27.4331
15.666 15.788 18.1168
17.2682 21.3902 23.9158
15.3001 22.1147 30.2483
16.7188 20.1839 24.4961
11.2474 16.933 25.4807
17.8332 20.6971 26.2461
14.4701 17.1013 20.2329
11.3809 17.1856 24.8957
13.0937 15.4425 20.1966
15.6597 19.6656 25.2668
8.79101 10.1888 13.5369
8.20947 10.9259 17.8536
14.7467 21.8598 36.7784
27.3712 30.5747 34.7808
22.0876 26.1158 25.3522
11.5434 20.147 29.3808
8.94458 11.0469 17.2876
11.8609 15.0381 20.7936
18.1905 24.7964 31.9146
18.5873 25.8012 32.7484
13.2141 15.9391 19.918
11.7891 19.9035 33.0769
15.6179 21.2082 29.6186
16.2848 20.3444 28.8195
13.2714 15.0038 19.5708
16.6812 24.6073 37.9897
28.9972 35.8939 41.8264
13.862 17.5714 22.2625
14.3036 22.4282 34.5353
16.798 22.4102 31.3381
20.288 27.5814 39.1118
18.7463 22.4432 26.3477
14.3549 20.2811 28.0319
14.4408 21.1001 28.2795
13.3736 19.9686 31.2233
12.2026 20.6658 35.4696
12.7725 14.1726 19.0422
12.9451 18.0844 28.2798
18.0575 22.6623 28.4808
15.58 23.2854 34.6868
17.1115 22.424 27.9394
15.2705 24.4689 35.168
12.8854 19.3417 29.7123
15.835 21.3661 26.7642
10.5232 15.9922 23.8534
12.7187 19.679 33.4881
16.9363 20.4784 24.1112
10.464 17.5969 29.9372
13.1073 17.5919 26.8489
14.7477 21.2048 26.4791
11.821 20.525 33.4046
13.0978 17.1987 21.3513
11.2777 21.0486 32.8507
13.3613 23.6041 41.1331
13.1874 15.2814 20.7978
12.6069 17.9436 24.505
11.6279 17.2717 22.8594
8.43685 17.3129 34.6229
20.1213 28.159 37.5809
13.1372 21.3302 34.6667
13.3827 19.6706 32.5345
15.6155 23.9849 34.6385
10.1607 13.4281 22.2662
12.8802 18.4217 27.0944
10.456 13.93 20.0461
9.36923 14.6959 23.2359
11.7287 16.8816 22.6769
11.1851 20.6203 34.2661
12.1957 18.3653 33.6844
16.095 24.2238 35.3902
8.44468 13.7272 28.4676
14.3851 18.5736 26.8486
16.5918 24.2997 35.2659
15.6311 24.207 30.764
9.06499 16.2182 26.0424
11.0198 20.1708 36.611
14.3786 25.8239 43.8411
12.0548 14.9295 22.9736
13.8955 22.7829 36.7131
17.376 26.0201 41.0925
16.9461 26.7875 40.178
13.5715 21.0434 32.8455
11.3633 18.5365 30.0933
10.6436 17.8259 32.1067
14.1075 24.1513 40.0176
11.9823 16.9268 29.1215
13.4511 21.1233 35.062
17.2135 24.8164 29.9262
10.6434 21.6019 36.3976
10.8499 18.6261 32.8339
10.7098 16.1998 26.0516
11.3228 19.0107 31.9635
10.7515 15.4396 24.126
12.5967 21.5598 31.3082
9.41716 19.361 35.9512
12.0659 20.5419 33.468
10.12 18.3697 30.8619
7.4839 13.8943 33.1652
16.3917 23.0515 31.916
13.6254 23.823 38.2314
8.98673 16.3635 34.6075
11.8776 17.2414 27.882
11.4812 19.5439 33.4653
12.4966 22.7607 37.2027
13.4025 22.3767 33.1663
8.71845 15.2784 25.6564
7.568 13.4612 24.4582
7.90981 12.035 19.9111
8.9043 17.3438 28.3621
8.11183 15.4824 34.2546
13.8255 23.3767 38.9332
13.9894 25.6116 44.7226
14.4184 21.4351 30.2543
8.39232 17.0984 32.6102
8.78727 16.6691 33.8071
10.7182 21.6079 41.0109
8.50406 9.90389 15.2291
8.69513 18.0075 34.8789
12.6912 20.483 34.7575
12.2502 21.3429 36.2994
14.1778 25.6164 41.26
10.5189 20.4867 44.0956
15.8271 22.7858 29.4272
7.45218 17.1318 33.6776
11.0091 20.0354 40.1776
16.223 27.7571 37.2167
5.76516 12.407 26.5134
10.3854 16.0623 22.7768
8.05438 20.9097 46.4441
11.8144 21.7766 38.8233
8.22541 15.6175 32.6264
9.61298 18.4397 39.9225
12.6342 19.2542 28.6506
8.91428 18.2451 36.7499
10.6886 20.7172 38.8495
9.08607 15.5625 30.5009
9.85744 16.0379 27.5987
10.2333 21.4588 39.4647
9.97118 15.809 25.9827
8.6545 21.7659 49.6262
12.0204 16.9819 28.2706
10.9956 24.4429 48.9083
13.6336 21.9477 37.4467
8.7148 16.7692 34.1783
10.3452 18.2569 33.4033
9.65093 18.1105 33.1437
6.93823 13.777 33.4654
10.4072 14.7074 21.3745
8.11431 16.4612 28.3073
5.41329 10.4873 25.0355
10.1767 20.4688 43.2319
10.986 15.3856 25.5097
11.895 20.3156 26.7384
7.29459 16.6385 29.6905
8.81923 22.2909 39.5552
9.13085 21.7933 45.8044
10.2909 25.289 57.1609
10.8012 18.6125 43.7701
11.3074 15.9787 26.8653
7.61614 15.5682 36.6409
14.4585 25.8431 43.5562
8.79805 17.4551 31.1026
7.68484 15.6203 32.7559
8.53636 13.5003 22.0643
8.70846 22.7707 48.0351
8.4198 16.209 39.2552
12.6626 23.776 41.2993
8.3087 14.4435 28.9355
7.23941 12.7431 23.0344
7.41496 17.3313 37.7503
7.6969 13.9698 32.3862
9.10235 15.5527 30.7622
8.15326 15.35 27.4546
7.79276 18.739 41.1903
8.34269 15.3474 35.2802
11.0367 18.409 34.4358
9.32893 20.6861 40.6106
10.1591 19.0467 35.8161
9.38813 18.5204 33.5979
6.03282 10.7884 23.0817
7.95594 20.3192 47.8238
9.06173 13.6561 23.8438
9.52558 21.4688 40.737
8.59464 19.487 41.294
9.69466 19.1024 38.7948
7.57404 14.1972 32.9601
8.79593 15.4206 30.2357
8.09965 16.3056 33.2065
9.20289 16.7771 31.0278
8.15317 17.2175 33.7464
6.87735 14.9243 36.0427
8.81831 14.9792 24.4877
8.52154 21.9655 45.9349
8.8553 16.0992 28.9741
6.35482 15.4083 37.7968
9.9971 19.2172 37.3335
10.2362 24.0936 43.7016
7.04322 17.3974 42.4907
8.28707 16.5222 36.6591
7.75552 15.3517 27.3231
4.31814 11.2219 33.3726
10.6271 20.3422 36.9879
7.18175 17.4794 37.6955
6.44335 14.0316 32.0707
7.12951 14.1688 28.5376
5.75295 16.7932 44.6681
7.80029 12.802 30.086
8.64282 18.2913 38.0318
8.15426 18.0324 37.4173
5.48818 14.1616 37.8232
8.15992 14.9105 25.2267
4.578 11.4109 30.3727
7.70716 15.5154 31.6968
6.96473 15.0778 38.5812
8.96542 14.8915 23.3809
6.55955 17.5182 39.1121
7.86314 19.3692 44.4021
9.54005 19.8422 39.6247
10.2241 22.8833 41.792
5.44143 15.1735 40.0039
5.80987 11.4047 33.2856
8.13217 16.2832 34.9626
7.0547 16.1518 40.1708
9.98196 21.3477 46.0426
8.43573 15.5315 29.0135
7.30872 16.1681 30.609
7.31864 20.8179 47.9767
7.3675 16.1789 34.8379
5.04633 10.6497 27.7873
4.93167 11.8838 27.1118
3.79085 9.7859 34.5325
7.32945 11.43 22.8373
5.24682 10.98 26.9693
6.75494 12.1463 21.381
8.21033 24.1672 49.149
5.11535 9.47724 25.0896
5.65208 11.5791 29.2125
7.07158 15.1149 25.884
5.65582 14.9259 37.9734
6.77464 16.0978 39.5062
6.81677 16.6918 39.804
6.3396 10.2132 24.9416
7.86559 17.8691 33.8193
7.41684 19.4304 40.8444
5.23691 13.4391 37.9767
8.44564 20.2485 46.3819
7.57655 15.9444 31.1406
4.76769 15.4888 53.6211
10.9324 20.594 44.2642
7.36711 14.7874 32.3884
8.00134 17.2585 28.823
5.1693 17.4329 45.1979
6.71871 13.3744 26.0443
4.65928 16.9311 48.7217
7.93526 14.9938 31.6021
5.93855 16.1456 45.9835
8.10327 15.2355 32.5419
6.43947 12.3468 22.6007
5.28197 14.892 36.6724
5.42457 15.0668 40.8242
6.07602 11.38 25.1536
5.18676 13.653 36.7776
5.85618 11.3528 25.5236
5.71757 13.0371 28.9523
5.10208 12.9544 29.9984
4.53326 9.50247 23.4307
5.52403 15.7624 40.3227
7.11294 16.3126 38.9746
6.6463 16.1712 38.9266
7.89198 19.3144 42.6849
5.47476 13.621 35.5528
5.36069 9.14203 18.5981
5.24446 14.6732 28.3098
3.08356 9.99684 32.9531
6.58783 16.5371 41.6756
7.67771 17.051 33.0002
4.56173 14.0984 33.3779
4.57825 15.8757 48.0716
5.5708 11.9966 31.9337
3.56061 5.55283 19.624
6.51489 19.034 46.554
6.04417 12.4565 30.6129
4.5012 8.32521 22.6189
5.13552 11.2719 23.1846
4.10962 11.8906 31.8838
5.75431 14.4565 38.2864
5.92811 14.9415 41.1418
7.17325 16.4967 42.0941
7.88113 20.3964 50.1035
7.47635 16.0369 34.5243
3.92958 7.92843 21.5478
3.82968 6.88063 15.8347
5.13282 16.0089 38.7975
6.48059 14.361 30.7388
5.59703 15.9608 47.7893
8.14014 19.4881 44.3795
6.35239 16.0583 35.8137
4.39783 8.42085 17.4571
2.75996 7.97637 29.6096
7.43131 19.9631 35.5533
4.08747 12.6654 34.1524
4.93629 14.3567 39.4512
3.93789 9.86668 31.6286
5.70141 15.1568 36.6075
4.97424 15.1451 39.8003
4.67333 10.2646 35.8711
6.40258 15.1745 38.0352
6.09731 14.6769 35.733
4.23252 11.6306 34.2956
4.95563 11.8841 29.8957
4.53865 11.4397 30.8182
4.82991 13.9765 34.3961
4.63648 12.3275 42.5031
6.84472 16.4914 47.4027
8.18606 17.9839 34.5338
3.85299 7.87415 22.7881
5.90982 18.2878 50.2331
6.74733 16.2736 31.0995
3.91359 13.5523 38.8425
4.29531 11.6705 34.8578
4.32083 12.0657 50.271
7.71335 14.1059 31.681
6.32668 16.4311 35.2323
4.90162 12.6578 33.3345
4.92213 11.4175 24.103
3.84007 13.6189 40.7061
4.77893 14.5663 51.687
7.70266 16.2441 30.3887
3.56864 10.2942 32.0085
5.24896 11.7286 22.4336
3.92858 16.5301 52.9583
6.56022 16.0462 45.442
5.993 14.9322 45.2224
6.06309 14.3145 41.338
6.15826 13.9741 29.3039
4.48788 13.6982 42.4077
6.62506 15.1817 32.205
3.57006 8.90622 29.4272
4.50733 11.8057 29.5718
4.77562 13.6206 33.4883
4.63992 15.455 42.6799
5.26168 14.1372 40.8287
4.90839 12.5201 37.1941
5.29597 13.2458 33.947
4.32651 10.9346 35.1192
6.87435 21.4744 46.416
4.4644 13.9412 41.3357
4.30706 10.1307 32.9396
5.3904 14.4971 41.7766
5.05985 11.1134 29.0425
4.22506 10.4632 26.957
3.83114 12.2832 40.0528
5.58536 13.9977 39.4664
5.93707 14.5081 32.0049
4.60561 15.4215 39.525
5.01327 15.5655 37.6192
3.85948 12.2178 39.8859
3.62165 6.22472 27.0435
6.43567 19.9234 47.0498
5.43887 16.4288 49.492
5.14348 12.2515 36.7271
5.82545 18.372 47.4306
4.15531 7.30196 24.1391
4.81598 16.9367 45.801
5.12745 12.9415 35.0219
3.7908 9.14263 25.94
3.90281 12.2247 36.9666
4.39215 8.41983 29.3561
5.71223 16.1111 35.8391
4.34517 14.2166 38.1196
4.17036 11.3545 35.5339
4.70403 9.49742 19.0929
3.99466 16.6207 52.4649
5.96829 13.2532 33.3739
5.66673 20.4541 52.6649
4.52212 12.7358 40.0319
4.48307 13.5685 41.9007
3.99105 8.29832 25.9348
4.30869 13.1285 35.7957
3.39648 9.45961 41.2559
6.46242 16.933 34.8987
4.06372 15.6124 46.683
4.42776 10.713 33.6809
4.44253 11.1307 29.8649
3.44973 13.6395 54.8322
6.5148 13.6799 30.5122
4.03147 12.8515 35.5176
5.21993 18.4962 50.7214
3.93742 9.14759 33.1711
4.62874 13.5892 39.245
4.52605 14.8107 48.3872
4.58652 10.3454 27.338
2.99577 9.44357 38.4616
4.8155 12.0479 34.9564
4.65787 12.3077 33.7032
3.79207 8.14796 21.9902
4.47783 15.8533 36.7289
2.48174 8.46927 40.807
5.27768 12.9754 35.0053
5.19343 16.6223 45.5905
4.2179 8.61393 18.993
2.24425 8.1666 34.498
4.72777 13.8921 40.0365
4.42166 11.1571 34.2563
4.61336 14.3249 36.7243
3.37511 8.20102 29.843
4.73515 14.6173 37.2583
4.37775 14.4009 41.9256
4.16058 10.6553 31.2636
4.14149 16.5937 55.0101
6.15761 18.2995 46.859
3.73663 10.4749 40.0866
4.3827 10.5471 38.5012
6.60815 21.8898 50.5063
4.9667 16.545 51.3409
5.00532 14.2958 43.6658
6.14654 24.709 71.4274
5.7765 13.1019 40.1766
4.19985 10.5936 34.5681
4.38863 12.3875 33.9418
3.5539 10.2191 26.9053
2.0498 5.39586 18.4111
2.73893 11.1241 41.0615
4.01512 11.698 41.8901
4.34033 9.98235 37.6895
4.47196 11.81 30.3218
4.27582 16.2906 40.4819
3.16995 9.34691 32.2135
3.77536 11.589 39.8129
4.56422 14.1291 42.7319
4.19338 10.6833 28.9098
2.61673 8.39081 33.2346
4.36581 13.2511 33.0867
2.95371 9.66424 37.6648
3.8704 9.6391 35.1217
5.37758 16.2646 35.4654
2.83213 9.72528 33.2926
3.52654 12.065 48.1912
4.56317 10.5084 46.1196
6.18883 13.3501 26.1755
3.1654 10.5614 30.3985
4.01497 12.0956 29.381
2.69589 8.63691 30.9975
3.92896 13.843 42.3663
4.24235 13.0534 38.0342
2.99833 7.12832 28.07
4.46657 14.3744 38.5179
3.91669 12.9985 35.0555
3.57877 12.0289 34.3823
3.44833 10.3478 32.6953
1.923 4.64294 26.4284
3.8442 13.5799 39.5827
3.85956 11.8039 39.8934
5.00629 19.4877 67.9347
6.41162 17.626 41.7286
4.6555 15.4506 40.3652
3.08115 10.7638 40.9277
3.46978 8.59344 38.8991
4.68634 13.553 44.1393
5.39317 16.522 38.1468
2.80818 8.69777 27.785
2.86934 10.2796 38.0466
3.73229 9.25311 34.971
5.27091 20.0892 57.7243
5.26376 15.574 39.7461
3.22446 12.6443 43.3212
3.57894 10.7078 50.4151
5.27847 10.4278 25.853
3.51556 15.5651 45.1325
3.62739 11.4248 36.348
2.85224 7.56914 27.6946
3.01868 7.72142 23.9343
3.0225 11.8623 29.1331
2.62772 9.55968 31.2761
2.99464 10.2719 31.6061
2.77118 8.22474 26.7881
1.93154 5.8168 28.698
3.22837 10.4608 35.821
3.45456 9.31453 31.7554
3.32462 10.0114 31.04
3.47092 12.7124 46.6281
4.29881 9.8498 24.4907
3.06747 11.3049 35.0365
3.51738 13.1051 39.7809
3.58314 11.7843 35.0123
2.74241 8.32839 35.0639
3.25712 10.6069 37.3336
3.61601 9.47516 28.8427
3.26995 10.8787 27.6232
2.38064 9.2284 35.8693
3.39043 10.6622 29.3326
2.62306 7.89447 26.0363
2.85919 13.6739 43.8622
3.60288 9.75661 26.8781
2.54728 9.91736 33.6555
3.07446 11.0312 35.9334
3.15369 9.71379 41.9057
4.49851 13.2405 33.9883
3.29603 11.2117 31.7148
2.31096 6.17501 22.7292
3.04402 14.1544 58.7375
5.00699 11.3634 29.505
3.12033 14.4661 62.8696
5.11915 10.7567 26.6267
2.38448 8.21634 37.8438
3.6046 11.6701 62.937
7.43069 20.3609 33.8243
2.43319 9.75526 38.4655
3.14433 10.8837 41.0818
3.86515 7.80733 23.681
2.6864 10.1071 22.7763
1.997 9.74275 37.1374
3.14002 9.19699 33.9673
3.35018 9.89664 25.5285
2.01706 7.43078 35.1688
3.79951 12.1033 30.8659
2.42676 8.35415 38.1943
4.16981 14.4489 43.7114
3.5657 9.06189 20.8816
1.74303 8.27689 43.0429
3.93338 9.99736 28.437
3.06655 12.3895 40.3288
3.60889 10.5671 25.3728
2.29092 11.9929 49.3172
4.25309 13.5987 34.1273
2.16867 8.53823 46.4203
4.35349 11.5387 40.3204
4.25803 13.927 46.0958
4.21071 13.463 33.6548
2.94625 10.7512 35.1047
3.20499 9.46156 28.6205
2.31364 7.90705 41.3694
4.13299 11.819 31.2768
3.36076 16.0049 58.7536
5.00107 13.8637 37.1985
3.20162 13.173 42.6252
3.03093 8.15112 25.0844
2.38208 9.85176 40.3885
4.11986 14.435 36.9897
2.5938 8.92452 36.5291
2.86969 9.21295 41.0421
3.90673 11.2194 37.733
3.08936 10.1033 38.9552
3.99066 14.4018 36.6897
2.98193 8.91666 25.1535
1.95565 7.83483 27.9725
2.62032 9.67855 30.7095
2.72131 11.6806 33.3932
2.74036 13.0941 60.4289
4.57643 16.479 65.511
4.52875 10.2502 25.8512
2.18768 9.2445 42.4239
3.39411 9.59498 27.8284
3.13226 12.9855 34.1724
2.23229 7.61324 28.9216
2.34855 9.15867 35.8111
3.19039 12.045 33.9731
2.61094 9.88255 29.8281
2.24358 10.1398 35.9425
2.0633 5.99083 30.1831
2.54939 9.46165 35.5589
3.19916 10.2554 28.877
1.96545 9.16329 40.7454
2.79239 8.47119 38.704
3.24957 11.1844 34.1369
2.96764 11.0158 39.984
3.49649 11.9503 43.1605
3.40148 9.82553 35.785
2.89403 10.453 41.7322
4.17021 13.6732 40.0651
2.78657 9.39133 29.8615
2.31505 8.93399 34.946
2.7113 7.07354 28.7475
2.6054 10.0513 39.6483
3.69082 14.2669 33.1127
2.30341 9.6345 46.8386
3.19382 7.58745 27.1653
2.37895 8.80043 35.2976
2.92124 8.73929 31.6326
3.2442 13.2758 37.0964
2.6494 10.7174 36.6585
3.02396 10.5783 34.1602
2.28278 8.54779 31.2189
2.65588 9.27783 37.9566
3.19059 11.4998 31.844
2.21977 7.5096 32.2835
2.93468 10.2338 35.3992
2.49802 7.56594 26.0031
2.48372 9.93898 31.715
1.85191 5.22522 28.6024
2.75867 9.17923 26.66
1.74548 5.93072 23.8051
1.90252 10.1218 39.5119
2.5985 6.90186 40.4544
3.54661 8.06046 20.56
1.83846 6.14272 18.4239
1.78679 10.1251 41.5097
2.86441 9.3043 40.5196
3.28608 10.0781 38.2153
2.99428 12.8917 49.6577
3.64815 8.25969 36.0359
3.30617 9.87595 43.1536
4.32921 16.4405 40.5043
3.13083 13.1882 33.8071
2.19413 8.78351 31.5665
1.88031 7.20241 46.9534
4.15503 13.0753 34.1683
2.44536 10.4977 43.6486
3.40011 10.0344 19.3414
1.30332 10.0642 46.3429
3.41853 11.4977 53.3847
3.83066 9.0099 25.4294
2.12739 11.1175 41.9655
2.99296 7.6021 39.2503
3.63988 16.0956 41.1394
2.67696 9.95449 37.2303
2.55552 7.47648 27.4055
2.57736 11.1581 29.3375
1.76675 5.72125 28.341
2.67015 14.3352 56.1587
3.44606 8.59197 27.4165
2.08663 7.34632 35.603
2.70174 8.91138 27.1259
2.10068 13.8336 68.2794
4.6097 9.08255 26.7065
2.22121 8.2016 24.1833
1.87043 6.61526 17.3838
1.56392 9.95224 33.8099
2.23833 8.05698 38.9383
3.06941 9.84449 29.7641
2.29584 10.8138 43.6667
2.88323 9.01669 40.3842
2.99949 7.42335 37.9287
2.9 8.43851 23.2299
1.97146 9.30433 21.6401
1.53167 8.62887 50.5449
3.93614 8.90211 21.658
1.89023 10.3743 32.8838
2.208 5.31776 15.7107
1.31342 8.70738 46.4156
3.57073 12.3237 33.7518
2.18068 6.09155 30.6296
2.51975 9.69711 33.7392
2.26617 8.2858 36.5733
2.7083 11.2371 51.1637
3.66462 9.69045 29.8413
2.07652 7.66122 29.6963
2.50396 9.33179 35.9476
2.45687 9.64734 31.9818
2.28947 9.09735 41.338
2.88429 10.3715 37.8062
2.97997 9.96193 35.8682
2.86147 13.8775 37.0644
2.21319 7.74876 43.037
3.23049 12.2317 40.0683
3.03976 10.407 44.997
3.33826 10.4926 28.3366
1.91471 8.81167 37.729
2.57176 7.5727 37.6921
2.93888 9.77818 40.5598
2.63364 7.38496 28.1238
2.28412 9.68575 35.9434
2.59131 8.85349 33.6271
2.34742 8.80596 34.143
2.63452 10.8573 33.8468
2.4243 8.22055 35.6596
2.86026 11.3316 33.4919
2.41941 9.97136 26.6627
1.76143 6.95081 32.0474
2.2372 9.96047 51.8085
4.14268 13.1935 35.055
2.13758 6.57172 28.6522
2.27821 10.2362 41.1251
2.74442 6.94469 24.7665
1.75765 8.51756 46.0182
3.31663 11.0729 31.9823
2.04408 7.00894 20.8841
1.6094 9.83684 45.9002
3.20162 10.9177 40.8217
3.12649 11.6108 45.0622
2.70106 11.1474 61.011
4.42481 11.3908 37.1339
3.16362 14.3013 40.0788
2.4209 9.29553 32.6646
2.21196 8.5868 35.766
2.79351 12.9047 56.8487
3.82473 12.4184 28.8315
1.9143 6.74993 38.6683
2.79764 10.3052 26.708
1.85954 6.78815 29.9801
2.24506 8.82184 36.0783
2.7416 10.6147 36.5567
2.70332 8.18827 22.8768
1.82397 11.2422 43.7671
2.57033 8.14592 29.6831
2.06386 8.75722 34.1054
2.34878 8.62069 32.7224
2.08373 8.6549 64.7452
4.75342 14.4481 38.7082
2.45728 9.20396 27.9897
1.96661 6.60814 28.963
2.12201 10.3004 46.681
3.10485 8.15399 40.2401
3.05106 13.6383 61.3148
4.41426 15.2417 40.4902
2.8566 10.4838 33.7281
2.29871 10.1127 32.1073
2.11323 4.60314 27.2062
2.36459 8.71191 38.9383
2.77028 12.2344 39.4517
2.43146 8.60784 33.4992
2.48355 8.27754 31.73
2.33157 12.6704 33.7893
1.95979 5.14737 30.1622
2.13902 8.51272 35.269
2.40525 9.19626 32.1846
2.15683 6.58019 30.184
2.26893 7.86313 33.5021
2.32057 8.4626 27.2328
2.02408 12.4522 53.1398
3.76573 10.0315 38.9722
2.81104 10.4378 33.2675
2.12456 8.48515 36.195
2.52488 8.97939 30.6349
1.94801 6.10062 23.6976
1.59103 6.24723 43.4972
3.29476 12.5013 32.3668
2.13824 8.57425 32.1772
2.10022 7.75268 25.3251
1.68064 6.7413 28.2413
2.08086 8.3232 33.344
2.32785 9.67626 29.9511
2.15677 10.3975 36.1484
2.51405 9.9859 43.6363
2.95339 10.1498 42.7329
3.00987 10.617 35.2255
2.24249 9.08836 32.6335
2.01858 6.34246 40.5701
3.01548 10.8369 35.9208
2.34776 9.29794 36.2435
2.30646 5.82978 28.2268
2.26763 11.1884 42.9195
3.12918 8.60968 27.7781
1.98526 12.9962 51.0277
3.1133 10.9338 34.6583
2.15739 7.31835 24.5275
1.72415 7.54288 38.5812
2.61548 9.87378 32.4775
1.9089 6.80921 33.8486
2.39944 5.30395 36.4465
2.74102 8.52284 35.4114
2.56441 10.5923 26.452
1.63039 5.89015 26.0112
1.83398 8.31358 26.1449
1.63954 7.17193 26.2899
1.8522 9.10658 42.5139
2.81168 11.2446 40.0407
2.80392 10.6115 53.9743
3.92426 13.3019 30.0197
1.80618 6.5001 46.4599
3.28384 9.13411 34.4813
2.53901 10.2894 35.4962
2.26691 7.47621 31.0121
1.90369 8.44168 27.3546
1.65391 7.63941 35.043
2.38348 9.23867 27.6493
2.01476 8.16222 31.9569
2.1839 12.7679 49.1352
3.12615 9.23553 47.332
3.27021 11.4451 44.0999
3.05165 11.0567 28.8295
2.00915 9.99496 38.6964
2.68323 9.3944 35.9832
2.52189 10.5034 38.6418
2.53801 12.7129 53.611
3.08326 9.18821 40.7273
2.7205 7.92353 46.2426
3.07639 6.11029 37.6387
3.23952 13.065 28.3179
1.773 7.69444 38.668
2.78698 9.88626 21.0073
1.38287 9.85712 45.204
2.63874 7.48301 19.7551
1.52321 11.3965 42.394
2.65019 7.89047 37.9389
2.29203 6.78411 32.3935
2.22324 7.97619 27.584
1.78539 9.18875 48.2816
3.06457 7.54187 34.5681
2.265 11.6997 36.7043
2.50624 7.57575 31.7944
2.13375 13.7268 32.6706
1.95735 10.4841 51.3242
2.92053 10.6223 56.7339
3.65418 12.5776 41.0278
2.62348 6.82765 31.2922
2.1546 9.18865 40.455
2.45695 9.53684 35.1081
2.42748 11.6435 40.2606
2.61957 5.03535 26.8133
1.92957 9.5418 38.9591
2.69027 9.65423 30.2905
1.87651 8.45051 36.9972
2.63189 9.80183 27.2938
1.84853 9.55777 33.9239
1.98459 5.22505 33.316
2.13126 12.1978 40.3746
2.45241 7.75933 42.0346
2.81483 12.0196 52.2556
3.49386 8.86304 24.9966
1.78727 11.2306 51.7178
3.08546 10.6018 34.5772
2.24944 9.65547 30.536
1.97589 9.22706 66.0019
4.2358 12.4217 29.172
2.01296 9.69872 40.6918
2.53193 10.5506 41.2981
2.73788 8.66504 27.4136
1.86984 6.97419 37.1987
2.57383 8.43909 44.2833
2.78111 8.46469 36.2578
2.42111 9.94922 21.8934
1.3925 6.21836 33.1014
2.19187 5.82982 21.5419
1.70443 9.45579 32.919
1.9649 5.5839 30.4959
1.83939 8.26589 41.9933
2.58119 9.50377 42.5182
2.90168 11.685 32.378
2.17255 8.82922 41.8648
2.65174 6.81662 26.4689
1.72277 9.28794 33.2429
2.09736 10.9104 38.3392
2.40412 9.44493 46.2356
2.95978 12.5504 46.1271
3.03218 8.44834 49.9112
3.18318 8.53957 32.0922
2.26891 9.25721 31.7731
2.17058 9.62958 39.3569
2.51221 8.71811 32.5248
2.08303 8.71407 27.0609
1.85469 8.04613 32.7385
2.1385 6.72458 23.2261
1.52775 7.41043 29.8755
1.90332 6.98208 25.4964
1.76526 8.72251 30.626
2.05705 7.21639 21.6315
1.56322 8.06021 31.8027
1.95803 4.54882 24.2527
1.82486 6.85099 31.148
1.89384 6.25209 24.8341
1.72736 6.65558 28.0708
1.71002 10.2911 37.4077
2.46057 9.757 34.064
2.31594 6.56013 22.7087
1.51364 7.85204 44.2318
2.93605 8.57172 32.5244
1.86465 10.2605 36.8253
2.45067 9.76492 41.7928
2.53207 9.0866 31.1347
2.02466 8.10381 38.38
2.41902 9.14921 25.6216
1.76143 7.04479 32.197
1.9686 6.17716 28.0126
1.78499 7.08746 27.0401
1.929 10.862 37.4224
2.26491 7.40418 29.9807
1.83072 7.12604 27.5029
1.76918 6.93593 23.8428
1.59638 5.17202 30.1043
2.02361 10.794 33.9223
2.19663 9.50394 39.1703
2.61722 8.6767 35.4535
2.32155 7.16551 32.4588
2.0776 6.19813 23.2676
1.63637 8.467 30.7827
1.8779 9.61428 47.1457
2.98491 10.4086 45.5344
2.72501 6.62276 44.0365
2.82313 12.844 30.6402
2.00459 9.61869 35.5501
2.35111 12.0234 47.1566
2.87387 8.3826 32.549
2.04771 10.3251 49.648
2.9893 12.8186 31.9331
2.06013 8.67352 50.9904
3.31934 8.02399 30.5224
1.69876 9.24899 29.8216
1.78977 10.7529 47.1184
3.04896 12.7893 67.3495
4.36288 0 0