# pn-170911/RbIIR-60-USNO-1280-1959.psd
# Power spectrum* (dif=0,1,2) (really just |FT|^2)
# NOTE: only the first half! (symmetric)
# weeks: 1280-1959
# 11 clock-days, 0 excluded
# PSD: 1441
723.51 0.0611387 0.0168472
14300.3 0.239627 0.0197964
61902 1.41533 0.01453
13632.8 0.405813 0.00982275
51163.7 4.24647 0.00729309
3884.17 0.318197 0.00633826
2598.39 0.36938 0.0138514
2085.09 0.445829 0.0175165
2684.16 0.60025 0.019035
1898.42 0.635318 0.0199173
1840 0.898718 0.0165569
1645.29 1.02014 0.016594
1780.83 0.946605 0.0120751
1401.8 0.895582 0.00557086
856.007 0.658323 0.0128227
617.567 0.554298 0.0120877
842.585 0.824347 0.0197579
712.92 0.819322 0.0204299
538.854 0.635602 0.0145149
608.813 0.993534 0.021248
505.25 0.911691 0.0138429
466.42 0.849586 0.00998841
501.507 1.13947 0.00875136
312.61 0.549593 0.0129205
303.345 0.628947 0.0221573
235.164 0.683088 0.0232962
312.276 0.996357 0.0230762
274.973 0.999482 0.0247021
402.339 1.25701 0.0156856
301.827 0.935152 0.0142325
332.559 1.2522 0.0134787
213.948 0.870476 0.0105373
292.651 1.4666 0.0272639
209.565 1.11616 0.031
202.937 1.21068 0.0300499
213.471 1.1095 0.029548
133.188 0.747182 0.0252949
213.857 1.41206 0.022007
221.678 1.5562 0.0193414
116.552 0.592826 0.0133139
159.335 1.17543 0.0232024
181.078 1.54273 0.0272522
263.576 1.99242 0.0317637
220.254 1.6134 0.0236495
170.072 1.65647 0.0389214
111.265 1.29944 0.02511
83.2943 0.671655 0.0150147
151.849 1.51699 0.0293222
127.436 1.28059 0.0187381
129.35 1.32435 0.0287774
175.604 1.98299 0.0376877
175.913 2.02551 0.033848
267.84 3.42476 0.0609922
129.423 1.61313 0.0277942
220.139 2.8845 0.0715698
135.746 1.79668 0.0395014
116.174 1.6069 0.030668
153.381 2.0944 0.0506729
134.949 1.94907 0.0403042
151.527 2.56165 0.0766212
103.552 1.43442 0.0381333
130.446 2.35506 0.062952
176.505 3.27977 0.0941656
221.447 4.09725 0.0984621
120.771 2.38039 0.0536972
111.234 2.38604 0.056474
110.84 2.41622 0.0593741
268.178 5.52022 0.117782
129.816 3.02544 0.0910334
134.179 3.26708 0.0714599
109.108 2.04492 0.0643395
116.143 2.48035 0.0854092
105.217 2.88575 0.0856873
121.076 3.12011 0.103923
63.1132 1.94254 0.0773836
57.66 1.33388 0.0398527
147.126 4.12426 0.134717
69.502 2.12027 0.0781169
153.455 3.80207 0.141442
133.331 3.70897 0.128918
140.593 4.38145 0.128151
145.353 4.46435 0.147284
99.9253 2.7458 0.0953514
131.13 3.83319 0.155151
52.3686 1.62628 0.0691424
186.307 6.00445 0.238702
148.779 4.91477 0.212263
119.782 4.17717 0.149679
57.8032 2.25836 0.079069
116.753 3.92157 0.181866
85.4784 3.22769 0.150089
140.601 5.82964 0.246781
113.295 3.81301 0.147821
97.1693 3.76392 0.149343
127.618 5.32679 0.240966
159.447 5.73047 0.294811
85.1304 3.50833 0.197385
125.178 5.08792 0.240758
174.014 8.10211 0.42039
101.153 5.01952 0.222525
72.4955 3.16109 0.171067
99.5182 4.64422 0.231648
139.531 5.90252 0.318781
83.5731 3.90147 0.244725
166.38 8.09107 0.486836
125.026 6.03521 0.324095
210.9 10.8985 0.594935
128.738 6.66843 0.382471
91.5013 4.24007 0.227576
103.222 5.79636 0.319241
101.265 5.70648 0.372809
69.2464 3.7287 0.205099
68.5326 3.75002 0.217361
83.9196 5.5517 0.303403
77.7451 4.64389 0.257586
74.396 5.01152 0.310502
112.85 7.08392 0.471714
153.172 9.65417 0.603793
70.8819 4.65216 0.311255
79.5247 5.31135 0.339773
165.536 12.2591 0.836036
94.0815 6.61161 0.509491
92.5369 5.56686 0.392822
64.7265 4.53076 0.379779
121.149 9.09773 0.645076
98.2513 6.9629 0.452042
77.8106 5.47291 0.444267
69.0184 5.1106 0.460208
163.588 12.7762 0.974089
111.728 9.15536 0.731083
61.3729 4.13663 0.373109
88.4747 7.58692 0.564466
83.2326 6.39835 0.553525
115.414 9.45916 0.854209
87.6435 7.73718 0.641765
148.806 12.7094 1.13421
121.72 11.5345 1.08898
78.6981 7.01702 0.716662
49.1537 4.17065 0.401595
87.5872 7.41376 0.697281
100.11 9.40952 0.793912
118.423 10.7208 0.91249
64.1418 6.31263 0.597825
84.3336 8.25712 0.826836
103.473 10.6451 1.16597
39.618 4.05435 0.438035
127.509 13.1353 1.46152
113.202 9.83561 0.942523
54.9076 5.74837 0.640045
74.5441 7.4678 0.810774
81.9561 7.99848 0.816818
96.9955 10.254 0.963412
79.344 9.00863 1.05261
95.2984 10.0769 1.17999
118.513 13.1579 1.59478
83.6511 9.28115 0.988514
107.42 12.9299 1.42947
73.8187 8.52614 0.902339
141.19 16.3674 1.85507
91.4594 11.0799 1.2784
75.0784 8.75882 1.02069
66.7801 8.00517 1.00665
56.8681 6.72506 0.830247
64.4981 8.98506 1.10171
89.678 10.9117 1.36443
66.624 8.6219 1.27643
82.2971 11.2758 1.48882
87.2502 11.1316 1.36589
53.8775 8.11287 1.1516
69.7354 9.24109 1.25286
96.0367 15.508 2.25819
57.0807 7.63638 1.13061
60.664 7.66512 1.00973
65.6396 10.2938 1.4546
71.4445 10.0825 1.35693
68.2323 9.31059 1.46387
112.171 15.9976 2.32378
56.7566 8.34287 1.2921
95.9718 16.0898 2.53151
81.4514 12.2477 1.87352
146.203 20.3709 2.7954
39.9925 6.11044 1.15455
93.7676 14.3619 2.23735
91.052 15.6664 2.53317
75.3461 10.6642 1.52394
125.277 20.3721 3.40524
88.8024 13.3683 1.99203
52.6018 10.3284 1.83827
37.5266 5.06236 0.743203
97.6936 15.0185 2.54372
35.4893 5.52553 0.903471
88.3985 15.6345 2.69154
42.6835 8.49166 1.5812
51.9183 8.87389 1.47201
77.6568 13.6464 2.46257
90.107 16.4702 2.95827
91.6113 15.4743 2.67111
35.1976 6.3377 1.22973
82.3505 15.2137 2.90511
38.8012 7.7847 1.4846
87.2841 17.1281 3.20309
27.7729 4.63652 0.963044
81.4751 14.7632 2.59015
89.2435 16.8234 3.0529
53.4946 12.3841 2.60807
74.3238 14.5014 2.95932
61.4473 10.8354 2.15745
61.921 10.6053 2.07444
55.1672 12.4782 2.5877
62.1996 12.6928 2.80938
101.721 19.3582 3.81482
27.0594 5.9801 1.47313
50.629 10.9144 2.58315
82.6269 17.2986 3.44855
55.8306 12.1363 2.61996
66.3657 12.4416 2.22997
68.774 15.8537 3.66277
47.7754 10.593 2.59354
40.104 8.55543 1.95166
76.8394 16.3202 3.58143
60.6262 13.7522 3.00218
88.7032 19.0162 4.04301
84.0153 18.5157 4.28661
94.0426 22.5666 5.61164
63.4043 13.2769 2.84429
67.2104 17.0953 4.13245
58.9809 13.8906 3.36743
65.5929 14.8142 3.48728
47.2 11.8668 2.90996
83.833 22.3767 5.92268
73.8615 18.4026 4.64726
68.4815 15.4776 3.3626
50.3044 11.8848 3.12983
49.7747 12.5134 3.2713
58.681 12.9217 2.96
62.1125 15.6299 4.20083
49.8555 13.7507 3.68159
109.81 27.525 6.64719
50.6075 12.3719 3.06937
45.2662 11.9215 3.34983
43.4118 12.9923 3.94254
66.2828 15.3552 3.72584
59.0493 15.9011 4.26028
38.0069 12.2633 3.89069
50.5029 13.146 3.57166
25.7325 6.37729 1.82403
73.649 20.5608 5.59255
46.5362 14.12 4.35933
55.6129 13.7323 3.96139
90.205 26.4806 7.66643
77.3368 23.0675 6.71109
23.5513 6.94784 2.34509
84.7366 20.2436 5.20852
67.2684 21.5878 6.69951
91.9565 27.9531 8.57538
39.25 11.6132 3.74413
58.7439 16.1217 4.47842
31.2375 11.0313 4.06389
95.4167 26.3629 7.62948
66.4481 20.878 6.67992
93.041 29.0725 9.38889
84.0236 24.6505 7.07748
45.4939 14.5992 4.36513
44.0374 14.5696 4.88199
38.7181 12.1377 3.7318
45.8486 15.068 5.32892
28.233 9.50433 3.30626
52.3297 16.6908 5.23598
52.371 19.8522 6.9266
52.8001 17.5762 6.08994
38.2726 14.666 5.74654
49.944 15.7319 5.44677
77.874 25.4394 7.80883
28.3991 12.2066 5.18169
91.8492 29.9134 9.61995
52.322 17.1854 5.58752
28.4852 9.30109 3.38317
41.9599 14.4288 4.74474
32.419 11.0336 4.01303
39.3936 17.6218 7.82514
58.4497 18.3347 5.47195
30.5728 11.5907 4.25796
33.0289 12.0261 4.66823
49.9977 16.6521 5.38978
78.8115 31.9065 12.4911
24.8482 8.56482 3.33864
39.3285 15.5607 6.10757
75.0331 28.7658 10.9514
55.3194 20.5754 8.04641
66.7516 23.9958 8.51646
40.0777 15.7874 6.87659
38.2716 13.3505 4.94527
40.7925 16.2679 6.274
43.7516 18.278 7.59062
51.5025 20.8783 8.29747
55.7088 21.519 8.34342
36.3402 16.5567 7.79042
67.6666 25.3992 9.4262
38.9327 16.08 6.73583
38.0799 17.4861 7.42155
63.0511 26.1812 10.8189
29.4225 11.1653 4.22423
52.7037 19.4221 7.63395
41.5435 18.076 7.47827
32.2111 12.7945 5.76594
32.8645 14.8482 6.82057
45.6199 17.4978 7.16823
55.128 24.8852 10.5288
23.7725 11.8016 6.46829
56.7376 24.1215 10.0664
30.4933 12.6723 5.98335
49.9008 19.7145 7.59091
32.793 14.2181 5.60357
33.9691 15.9954 7.33399
37.0157 16.5328 7.27141
38.3013 20.0766 10.5996
45.5714 18.4699 7.19597
45.9298 23.7948 10.7449
24.9686 11.0323 5.40543
38.8727 18.1922 8.86654
31.786 14.1904 5.95245
38.3248 20.0116 9.84443
25.6587 12.1383 6.40442
31.3705 15.0886 7.09902
28.6219 13.883 7.04236
35.0659 14.564 5.77633
48.9114 26.3218 13.6531
27.8301 10.7919 4.82262
57.6548 29.1584 13.4247
17.3731 8.03643 4.34684
49.7931 22.5584 10.9621
34.3765 17.6058 8.74677
26.5674 13.1582 6.93944
35.2274 19.0371 10.47
30.0581 13.4229 6.77218
44.6527 21.8883 11.8234
57.9609 27.559 12.9992
38.6352 19.8617 10.2021
27.1276 13.2535 6.63698
44.3156 24.4378 13.5703
30.291 15.0501 8.41148
39.9278 17.9753 8.94637
48.0924 25.1744 12.5275
35.6984 21.46 13.6514
56.1848 27.987 14.1894
16.0466 7.50606 3.95508
33.3333 18.7109 10.5221
29.3859 15.9559 8.11937
26.1582 14.1558 7.48904
14.5378 8.18364 4.38613
22.2579 14.7389 10.254
58.9677 30.5563 15.167
29.8322 16.59 8.77054
10.675 7.19271 4.45508
31.3891 19.3233 10.3582
25.1717 16.0442 9.88308
28.208 16.1271 8.93405
37.271 19.969 10.4066
37.318 24.4521 16.4561
32.9154 16.1298 8.95648
65.5949 38.3835 20.7451
26.0593 13.1356 7.96517
25.734 15.1939 8.68
33.3358 19.4032 11.4136
36.1657 23.8577 14.7954
38.4585 24.5916 15.5894
30.1998 14.7775 8.05736
30.5883 19.6338 11.4709
23.3182 16.1774 10.5428
32.0489 21.1182 14.9041
37.2569 19.4936 11.1256
40.8113 25.5377 14.9664
31.9302 21.1203 14.0162
24.812 13.4114 7.60699
19.421 14.0912 10.3093
33.4078 20.5556 11.9726
30.7753 21.412 13.3703
27.5834 19.9609 15.1766
18.73 10.2518 7.31841
54.8573 31.6182 17.7896
37.3039 22.1836 12.1441
27.5733 18.007 11.3851
27.0217 19.3914 13.5741
20.5789 11.4496 7.65815
30.7765 20.9104 13.2029
20.1263 14.6211 10.5795
21.8994 15.6759 11.4776
29.1976 18.7617 11.4802
39.3701 28.6817 18.9892
20.2991 13.8066 10.2848
29.0244 20.6134 14.1253
30.9192 18.3613 10.8215
15.9936 11.3765 7.50722
19.6539 17.5046 14.3938
38.0974 26.514 17.4519
25.9392 18.7543 13.1659
14.4963 8.62178 5.00288
30.8955 25.6199 18.8189
25.0788 17.8616 13.3016
26.0625 18.8941 15.0239
27.8387 16.7996 10.2611
32.5315 26.788 21.3892
25.7193 13.9917 9.16112
33.0374 23.562 14.7103
14.2267 12.5968 11.2897
27.4755 19.3127 13.1512
21.6846 16.224 12.2723
30.3984 20.1095 12.6814
40.7987 31.6498 21.9922
34.9712 27.0412 19.4439
20.9903 17.1649 13.4222
20.154 15.0005 10.6286
22.9175 19.0233 14.896
25.6999 20.5422 15.2702
21.4137 20.1589 18.8863
30.0053 17.141 11.0559
22.4071 18.2458 15.0784
25.8159 15.9565 10.433
23.6688 21.9625 18.7529
28.2532 20.0114 14.2478
22.2587 17.4753 14.477
18.7723 13.2869 9.24408
21.2868 19.8019 17.4936
31.434 23.4209 17.0112
18.9333 16.8232 14.6497
27.9112 19.8175 14.3771
21.8278 22.172 20.3957
28.3355 20.23 15.7801
13.3507 8.08981 6.5028
38.0254 33.3799 26.0486
22.1309 17.1703 15.7531
38.293 24.8903 15.266
14.172 14.1142 13.6939
21.0749 17.9364 14.7844
19.6236 15.6464 12.9907
29.6856 26.483 20.7392
17.5705 14.6643 13.1022
15.3265 12.4972 11.5647
29.9115 25.6375 20.1277
18.0274 16.3882 14.1725
28.0786 25.2523 21.8549
25.5203 19.2141 14.036
15.088 15.6859 15.1698
30.3328 26.362 22.606
16.7317 15.3784 14.2609
15.6272 14.7939 15.1887
21.0234 17.1851 14.3652
13.4904 11.7035 11.101
16.6509 13.3557 11.8178
23.9373 19.177 15.9346
29.1932 25.4784 20.6612
18.9345 16.8894 15.0764
18.3657 16.33 14.2132
25.7865 28.2052 25.9412
23.2002 19.8648 16.9615
12.9001 16.3943 19.0477
12.9083 12.2468 15.0922
27.3848 19.403 13.8292
14.9495 16.2618 17.2891
18.3073 17.0719 18.8935
27.521 21.1237 15.9691
24.5265 27.2705 30.9335
26.8607 20.3068 15.6952
12.0318 12.0352 11.8035
12.4362 12.1266 12.5685
24.4585 24.6571 25.5467
15.1771 14.9757 18.3151
24.7453 24.0332 27.5007
30.1758 21.6522 17.8986
26.3605 21.3781 15.8019
17.9213 17.5092 15.0086
13.7984 12.1145 12.0482
20.6775 18.4452 15.6184
12.0794 10.7528 9.77241
20.2565 20.2007 20.2021
22.3564 19.5507 16.762
13.5227 12.4621 11.1268
14.3859 16.1531 16.9182
22.76 21.4809 18.6494
20.8724 21.2256 19.8103
18.6074 21.7358 24.1654
24.7366 26.4074 26.4453
14.2029 13.064 13.6412
16.2053 18.5167 20.1438
10.9413 9.07093 9.97921
19.5265 19.4221 21.0079
23.7545 20.9898 18.2119
22.4103 22.6668 21.9457
9.39561 11.3328 15.2286
22.6237 21.9935 20.5774
22.8524 24.9653 26.1431
14.7345 12.2372 10.901
12.9761 18.5458 24.173
18.9529 18.1379 20.0394
27.3602 25.4082 21.3051
11.0336 11.1988 11.7504
23.477 28.4179 29.4816
10.9762 12.2636 16.3322
14.1778 13.8665 14.5135
18.1385 21.6393 25.5585
15.4944 14.127 15.4741
15.148 14.0306 13.6308
13.4727 13.4622 14.2301
22.8214 23.9454 25.8886
22.0901 23.0271 24.5995
24.5355 29.4607 34.2589
29.525 32.1317 31.4638
19.9776 21.6662 23.6606
16.9163 20.2547 22.9426
10.0301 13.3933 19.2494
13.8853 11.6713 11.4084
19.2954 23.6484 27.0315
22.5368 24.4916 26.4269
19.7402 18.8837 18.4049
8.80292 10.3061 12.1398
10.6372 15.4925 21.5716
19.9598 20.2503 22.6014
26.5656 31.9479 38.3498
22.015 19.0287 15.2798
12.0136 14.2067 15.8159
13.9215 16.5632 18.7244
14.4288 17.8278 21.6227
21.3659 25.3039 27.9466
9.52127 8.78167 10.9464
10.0031 13.6526 20.021
28.6817 31.8927 33.169
12.0999 12.9402 16.5429
21.628 23.7668 25.28
22.1439 25.8106 28.0802
18.8976 26.151 34.0161
18.1633 19.5169 23.6279
16.2422 18.7758 23.6529
18.5671 22.9453 28.0017
16.7296 18.2369 22.0866
18.763 17.9552 17.5071
19.746 25.1313 28.2069
20.364 27.7541 31.8641
8.68445 12.9717 21.0259
13.4601 15.2818 20.0844
13.4041 17.1341 23.2111
17.4073 23.7116 32.8673
15.9412 16.9741 26.5633
35.4433 38.1763 35.5089
15.907 18.9128 19.3419
17.3819 27.9137 35.9528
13.0664 16.117 20.8738
14.3695 22.6791 33.3666
17.3107 20.0396 24.59
14.6267 17.2773 19.0152
9.39773 13.7814 17.655
6.7896 12.9442 25.7805
16.4482 15.9274 18.3317
17.5363 22.1743 27.6345
21.6798 27.8556 35.8655
21.0847 24.7045 31.4735
19.725 19.9313 17.4365
14.771 23.3577 29.2503
6.7697 9.46585 14.8764
14.5205 21.3539 32.4545
11.5518 13.6763 18.0707
15.4236 21.9452 30.3604
11.2534 12.5413 14.25
11.5181 14.8477 19.2977
14.0248 21.0672 29.9859
16.116 18.6432 18.6851
12.3549 20.4442 31.0055
13.3412 15.6244 20.2776
16.0055 21.2275 23.7885
8.8892 14.2556 20.9131
11.4552 17.0549 26.2153
11.178 12.0996 14.67
5.13409 8.05961 16.1547
16.4446 17.9154 18.5812
10.4416 16.8575 23.5528
13.1753 21.9088 36.9929
15.9296 18.0743 23.8437
13.4486 17.4583 24.3835
15.0345 19.3615 22.7296
6.41676 8.07051 14.0302
16.3524 23.3903 27.3234
10.0615 16.3056 24.8601
13.3303 16.6078 23.9787
13.8587 19.5767 26.3805
14.8036 22.8026 30.1543
8.00246 10.4495 15.6449
10.4212 19.2162 33.036
10.1003 12.1674 19.2234
11.0141 16.7585 28.8127
19.7598 26.6334 33.1848
7.92658 10.3112 18.8541
14.1383 16.3659 19.5749
9.57273 13.0082 18.9587
12.4237 17.8048 25.1442
22.4671 31.7013 36.6741
5.3296 7.89514 14.5464
12.2699 19.0286 25.3267
7.65826 10.8965 14.2394
6.47107 11.9386 21.3066
13.1051 18.5879 25.0496
9.66721 15.2673 24.787
8.77542 11.1919 16.2019
14.6049 24.0878 36.4476
17.4371 24.5723 32.2208
10.725 19.3283 32.4085
13.491 22.0948 36.4157
14.2977 17.9151 22.5112
11.5504 21.447 38.9371
15.3375 20.1945 26.8366
11.7278 16.2264 19.87
4.22348 10.1122 21.4088
10.9501 17.6857 32.4223
18.6458 25.8465 34.5284
9.12859 22.4241 60.901
60.2007 106.201 165.041
37.2414 34.2793 33.1283
16.9601 22.6117 24.2348
8.8326 14.9823 24.7857
14.5685 24.9754 37.2522
9.92497 16.0959 25.1335
6.85036 10.3156 20.7101
15.0482 24.2391 32.6855
6.19377 8.77441 15.1109
6.73955 13.453 28.9772
11.8801 13.6554 16.018
8.7618 14.3794 24.5248
13.331 22.304 33.8269
10.8655 16.7985 24.1359
5.77613 10.6802 21.9293
10.3111 15.1664 23.4796
7.14934 11.6165 20.9982
15.7486 27.4754 40.9885
12.0467 22.1637 41.3488
10.5156 14.4052 24.4497
12.6583 18.3057 22.9634
6.04163 12.5381 24.9901
8.85069 16.669 30.8955
7.94367 10.015 18.4299
11.9999 19.0069 26.4664
4.79267 9.57366 20.7951
5.87914 10.15 26.5487
14.7355 16.5173 18.463
9.86841 15.6146 24.2542
11.7112 18.9646 25.2232
9.18243 18.4966 30.6769
5.25895 7.88772 21.0351
19.9104 37.7406 58.3128
10.6533 16.6172 35.2879
17.7318 24.1294 30.4355
9.89299 18.0566 29.8313
10.5416 22.9387 48.3668
13.3271 17.9282 27.1394
9.88247 14.3476 24.3503
11.895 16.5422 23.6811
8.59579 13.2677 22.4828
15.2847 26.2083 38.0017
8.02889 16.3774 30.3726
9.63904 14.7825 22.9413
8.30986 17.3642 27.483
5.77906 11.1229 22.5704
8.64915 17.941 35.474
8.58745 11.7809 20.1324
9.13564 16.8176 33.9164
9.58544 13.252 23.5839
11.8908 20.2355 32.9914
12.7109 26.1305 45.6125
11.1107 19.7292 36.4227
10.6696 17.1917 29.2756
9.12402 12.3785 18.8361
8.95577 15.7764 23.8152
5.22766 12.4976 29.666
9.15247 14.2133 23.8407
8.17237 11.8948 20.1415
8.3809 14.8383 22.3043
5.92351 15.3843 38.9801
9.69579 14.5894 29.0299
16.7065 26.2781 33.4076
7.40976 17.6689 36.6485
11.3872 18.5794 29.8398
6.99706 11.9396 17.5836
7.17513 15.1657 28.0237
6.35929 14.0701 33.6199
11.1874 19.7643 33.6732
9.7807 17.0152 32.1201
8.07279 19.0928 43.9551
12.3133 21.3431 38.9134
9.72155 16.9169 33.5264
9.98204 15.1805 26.3628
14.132 28.1889 43.4913
5.99199 10.1748 25.079
8.53961 13.2666 22.3493
9.52641 17.8878 28.5232
7.21633 15.4236 32.7875
8.64708 14.7532 26.9327
10.142 23.8763 55.3088
12.0893 15.6483 20.8247
10.3016 23.557 46.8013
8.82537 12.22 20.7241
8.5438 18.4633 37.3224
11.6787 22.5217 42.0561
8.59373 11.7612 23.1571
7.72326 11.6967 19.6803
8.30448 13.7705 21.1323
5.54126 10.6511 18.5338
6.70039 13.7734 24.5435
8.4663 19.2008 36.7146
3.94933 7.87787 22.5976
9.03907 17.9125 34.5852
8.05828 15.3459 30.7353
5.09017 9.0715 22.9579
8.91738 11.5976 13.715
6.58994 16.7891 33.5829
8.9976 19.8472 42.8455
9.42327 15.5108 23.3125
8.15717 21.7625 44.6733
8.61402 17.2732 35.8192
7.88567 12.1495 20.7086
8.38348 16.5451 26.2177
5.69037 17.9283 39.9959
5.59655 8.34138 19.0863
6.18869 15.6115 41.9454
13.4816 21.8907 32.4958
9.36049 23.2789 52.8111
13.2539 21.9404 36.2265
7.14246 19.2676 51.053
10.7315 14.2223 23.0139
9.79472 21.1748 36.7173
7.70423 17.4449 31.7466
6.05295 15.4538 36.5835
7.61849 15.2176 27.5824
4.74125 11.1569 32.5424
7.23841 8.85498 14.2161
6.36703 12.5186 16.9609
4.87219 17.2231 39.1642
4.69077 11.5331 33.5832
6.79649 17.0275 55.3291
13.3695 18.491 33.1601
9.99031 18.7789 34.711
10.8451 23.7608 42.1526
9.1974 18.7637 36.7524
8.03983 15.7233 34.783
9.02002 15.8024 27.2378
8.03036 20.9725 45.8584
6.90707 9.70622 18.43
8.22771 22.0173 46.649
9.1772 14.9675 25.7584
5.60802 13.5722 28.1832
4.55734 11.8797 37.2858
8.87571 13.5273 24.0804
8.37115 19.6289 37.3235
8.35049 15.6873 30.283
7.04983 16.7313 33.6814
4.77725 8.06255 13.826
4.17439 15.5671 44.4986
9.55581 21.1864 45.1004
7.04615 9.01029 16.5079
6.63346 16.4389 37.0184
6.41564 12.202 24.6633
4.80965 8.41148 16.4777
4.66361 12.4054 35.7944
11.1161 22.9821 43.2765
7.47218 16.5166 40.3653
9.88865 20.8775 38.0023
7.26536 15.5428 31.2466
5.8828 14.4242 33.9333
6.81699 17.5322 46.0417
8.36807 13.3683 23.5951
7.50015 19.728 45.4002
7.23709 14.6938 36.7103
8.0127 15.4223 32.019
10.0231 23.1135 42.8143
4.99529 9.77414 26.1996
8.41461 20.0827 36.7138
3.40309 7.89759 31.1217
11.4843 25.7308 44.3641
5.76011 14.3332 39.6762
8.2011 16.8835 28.9981
4.12893 11.47 29.8561
6.79421 15.1027 29.3498
5.26111 14.002 30.7291
2.85948 5.83416 23.8237
9.10281 22.2777 41.0545
4.5034 11.7622 32.9519
5.93314 10.9747 24.3509
3.95032 7.80544 21.7034
5.63383 12.1698 25.1756
4.18 11.2448 33.7014
10.169 20.7914 38.3836
4.45262 9.84482 22.9419
3.48995 6.84804 23.1364
7.20448 20.0742 47.4604
6.17311 9.35022 19.7438
6.20101 14.5292 34.8449
7.61008 15.3004 27.754
3.95335 8.19172 17.8343
3.82166 10.125 23.2149
3.94719 11.8028 35.7549
6.48053 11.2685 27.7145
6.02079 13.0847 28.7671
5.65042 14.5889 38.4439
6.41442 11.1253 26.7945
5.50876 9.62684 22.1418
5.72711 11.905 25.6864
7.52203 19.247 40.6601
3.93144 7.5921 17.8713
4.82532 14.5224 41.0418
8.8778 18.4391 40.4124
5.74895 13.1759 35.3711
6.37767 11.9329 34.0736
11.1722 27.6339 49.2515
6.63878 16.7071 35.0679
2.63958 6.46868 25.7095
6.24463 16.3352 42.7235
7.28245 17.1093 58.0825
14.6019 28.758 46.6197
6.81279 18.2121 38.6917
4.75029 11.7478 32.738
6.65946 16.7478 43.5073
6.87611 15.9607 37.5
5.74887 12.8216 27.0995
3.66141 9.37857 27.7007
5.04319 8.51499 22.0892
6.46873 15.3845 32.0666
6.28634 17.7458 44.7502
5.88473 10.8157 17.7484
1.86168 7.23238 25.0067
6.50904 17.6381 45.9495
6.18808 14.8066 44.4589
7.94149 14.9451 25.3128
5.98791 17.9258 42.8632
4.79779 8.98417 20.103
2.09223 5.84082 26.3444
7.65002 17.1414 35.8521
6.42297 15.8206 33.2541
3.46773 6.60898 17.4129
3.85319 8.4602 14.2592
3.63266 14.2133 32.9065
3.27956 10.6556 36.667
5.22159 12.3953 35.7826
5.02039 11.256 27.0049
3.93365 8.63309 21.3965
2.66078 5.73099 22.8784
4.66942 8.97222 15.1541
4.13262 16.1882 42.4593
3.75245 8.19443 30.9355
6.8713 14.7122 29.4909
4.1978 9.47609 24.0655
5.07736 13.0466 31.906
5.89423 15.6175 37.6766
7.34141 17.3435 26.0192
1.29546 4.74773 13.9347
1.99285 5.69397 15.3871
3.22715 11.3019 34.2031
5.13632 14.0336 29.6969
4.2037 15.6238 49.6099
5.6641 11.0045 25.4191
4.41321 11.7429 33.9879
5.02165 13.8204 39.0823
5.55837 10.1256 21.0716
4.18195 12.869 33.7154
3.47035 9.57192 32.0915
5.22673 15.4164 48.1841
6.13661 10.4518 24.9073
3.68207 8.20969 26.5562
7.27043 16.9439 27.7341
2.96844 9.62467 23.0222
3.27255 9.61303 29.2633
5.89992 18.6718 45.7668
5.12524 10.6912 24.6303
3.47477 11.4528 36.9011
4.11316 10.3713 29.7997
4.69281 11.7854 25.8366
3.78041 12.1708 34.7371
3.16235 6.31918 18.5461
4.1878 15.2361 37.0248
2.71227 8.40237 36.9604
5.05808 8.62984 24.7017
6.64848 20.5423 46.0973
4.71592 12.8571 36.4989
4.82269 13.238 41.9038
5.57536 15.79 40.4979
3.8833 7.26331 27.8142
5.95635 15.2851 33.0248
3.49789 7.81064 24.5527
5.86333 15.5608 27.6182
2.44607 10.0125 30.0283
3.57584 11.3394 42.5869
6.09558 13.6143 36.4805
4.81909 12.8595 30.8991
4.91182 15.1692 41.0585
3.93837 13.9083 57.5586
8.1734 17.126 38.3006
5.06918 12.1637 26.7198
2.84038 5.72889 17.8345
3.14682 8.76125 27.2317
4.37576 13.362 42.0487
6.3077 10.7525 19.085
4.47363 14.7299 31.664
4.37369 15.2812 43.091
4.43422 11.0509 39.3935
7.69599 23.2399 50.9497
4.18149 9.31346 29.2997
3.32155 9.12004 33.2207
5.70852 15.1096 33.053
3.53692 9.37562 31.3677
3.60251 5.46423 13.5279
3.62695 12.326 30.7187
3.62548 11.3792 42.7326
6.00605 14.6429 33.9647
3.68314 9.44723 27.9436
4.01719 9.81914 29.7464
4.96635 12.9319 31.7971
5.93857 18.7157 40.8304
5.25455 26.505 85.3281
6.13263 9.39411 26.1076
3.64188 10.0943 29.5891
5.31425 19.1702 51.0591
3.79495 7.25301 24.4123
3.68443 9.43758 30.181
4.62579 11.346 31.6762
4.06916 13.0704 45.4886
6.50604 13.8286 27.1332
3.49233 10.2764 25.9102
4.1714 13.6015 29.084
2.09365 8.26135 39.3019
5.02977 12.4534 37.0621
5.07724 15.3683 42.3098
4.37215 11.6091 29.1411
5.1238 20.0717 52.9385
4.2738 10.2023 28.1873
3.91923 9.44144 23.2062
2.31792 6.8712 22.9522
3.91246 15.3598 43.0465
3.29372 6.90851 28.861
4.75315 14.5525 36.8339
3.77617 8.4545 25.2565
3.39991 10.918 38.2972
5.11776 11.4918 22.9569
2.34806 6.97436 24.1686
2.86334 7.90579 22.7018
2.77361 10.733 38.1546
4.93519 13.7113 37.1142
3.52996 8.1757 24.6515
3.27573 10.1858 35.4422
4.80286 11.3664 28.2821
4.16776 10.9167 24.0702
3.0813 13.8158 46.5433
4.25037 10.9154 34.9848
3.9955 9.81378 25.4644
3.74695 12.5187 25.2575
2.08985 11.1282 44.8476
4.10108 8.15496 28.957
4.69736 14.4731 42.054
4.55287 14.0156 46.7808
4.72603 10.4623 29.5744
3.88725 11.7895 31.7988
3.25831 8.9364 22.0283
3.3204 13.0474 36.5573
3.03988 7.02969 23.5528
2.02597 4.53907 20.8713
3.03128 8.23897 24.0508
3.14906 9.26403 19.7943
2.16521 8.47054 23.4679
2.89832 10.2299 37.9014
3.89835 10.3331 25.705
3.10536 11.6923 37.2859
2.97861 4.84328 18.6949
3.11202 12.8053 39.6253
4.4957 12.2852 35.1768
3.03289 6.62108 28.2018
4.97977 16.7904 45.8943
4.18804 14.3606 46.7081
5.37215 11.2466 32.2085
4.11054 12.0344 31.2385
2.58998 8.51411 32.9071
3.68839 10.2429 33.7951
4.73389 17.1876 50.9447
4.542 11.4963 31.4799
3.2337 11.2641 35.2696
4.02463 13.0543 35.1521
3.16993 6.83293 25.1978
3.37122 10.6457 30.183
4.09612 13.2942 36.9745
4.54492 16.4718 38.3011
2.95773 10.4592 46.137
5.30713 14.9547 32.2355
2.68582 11.4839 37.1588
3.00613 9.91201 42.4279
5.74342 16.3871 34.7911
2.27073 7.54567 33.0789
4.09038 12.3631 24.3992
1.56841 7.54219 33.0981
2.65354 7.29741 32.1837
3.78535 12.0371 41.9251
4.1365 10.6667 33.2761
4.03435 13.751 47.9761
4.8524 12.4258 38.1231
3.59527 9.18485 21.5777
1.98465 7.73731 24.1804
3.08616 12.5126 43.7039
4.77812 14.3863 45.6723
3.43724 8.65375 26.6413
3.31657 11.4186 41.5137
3.7497 9.70917 29.4062
3.37344 11.2959 37.4524
3.68083 11.3933 34.6321
3.53122 14.0837 51.4962
4.69069 11.2398 29.3537
2.8231 8.09138 24.4695
2.56795 11.3436 43.4219
4.19929 14.1452 68.1055
11.9317 50.1362 136.726
8.18144 16.4587 57.8917
4.97138 8.52851 33.9452
5.08664 20.8295 93.919
12.965 57.9748 220.003
18.28 27.8854 39.2356
5.10479 16.8056 34.3629
3.41835 13.0961 28.0407
2.16248 9.03633 38.618
4.90696 17.8615 47.603
3.29496 11.4586 48.6805
3.97281 4.20781 13.7741
3.3964 16.4006 42.8697
3.39407 7.96171 25.5205
2.71209 9.03144 41.2739
4.8129 12.9917 35.7719
3.20153 8.53249 25.3975
3.3525 12.0329 36.3992
3.86828 12.4993 37.0537
3.32258 9.10478 27.3961
2.85016 8.51057 32.4008
3.34342 13.6874 52.8527
5.30358 15.4716 37.2393
3.7406 11.0873 22.2688
1.82941 11.3493 47.1115
3.3583 10.2907 46.1754
4.76579 11.4368 21.4388
2.40458 13.6447 56.0273
4.1359 7.47777 23.333
3.12801 10.2709 28.4334
2.55501 8.01118 23.7141
2.14615 8.4653 36.0763
4.09902 17.2302 52.9067
2.97305 7.26244 31.3387
3.12503 7.51201 29.4137
3.84986 10.161 21.2086
2.6391 13.0785 40.8926
3.2905 11.7519 44.7333
4.25539 13.0689 34.3263
2.64601 11.1789 44.632
3.41778 10.545 48.0906
4.36658 10.6243 29.8021
2.5163 7.06165 38.9711
4.64768 13.7132 29.478
2.20371 6.73889 22.5261
2.3427 9.45057 27.8508
2.32792 8.41669 33.8459
3.29758 10.5803 30.3678
2.90111 11.2564 48.1698
5.18147 17.9289 42.1019
2.7066 7.3779 35.0375
3.68622 11.7635 38.7277
3.73313 12.3774 30.2762
2.40041 10.7328 39.6776
3.39034 9.1374 28.2032
2.38686 7.57002 36.8856
3.81481 11.2797 33.0176
3.03111 8.87242 24.4439
2.28211 10.3478 36.3802
2.41875 6.62312 29.7374
2.9277 11.1625 37.8004
3.26732 7.77176 18.0767
1.44915 6.41383 23.3079
2.14208 9.37079 34.9803
3.23424 11.5604 44.8729
4.0851 12.0987 34.0733
2.00372 6.45345 29.8819
3.32877 10.292 32.892
2.68456 6.58487 19.8965
1.74856 6.60447 35.4256
3.86888 13.2382 39.1757
3.70568 10.5268 27.3851
2.33361 8.9817 33.3257
2.98649 10.4589 39.673
2.85351 7.17202 33.3073
3.99361 16.7454 52.8139
4.37047 12.6621 27.5242
2.63003 13.5904 31.1501
1.25685 6.07572 29.9389
1.97466 5.59395 30.1462
2.36093 8.8839 64.6252
6.17274 14.0013 18.4244
1.70256 8.13662 25.1249
2.41414 9.5895 27.0331
2.10002 9.53959 30.2343
2.46216 13.3405 61.823
4.4888 7.28549 30.4838
2.9825 9.11093 26.7694
2.67982 10.6208 36.1801
2.99054 9.50814 27.057
2.53196 10.1392 35.5883
2.39703 6.49647 33.3525
3.47803 7.80313 16.3859
1.94781 8.47148 27.5139
2.14796 8.40383 31.9891
2.55745 8.35034 42.1857
4.33957 14.8069 42.0246
3.40929 9.96001 28.8768
2.40247 8.2285 26.3739
1.90128 8.67133 40.3707
3.32611 8.8903 30.6933
3.4825 13.4534 38.5146
3.0186 11.3441 37.4579
3.14392 9.24241 30.9254
2.3757 8.8222 29.254
2.29046 7.89161 31.186
2.89427 12.4683 38.2385
2.55306 4.57028 24.6668
2.64522 9.76745 28.9497
2.33637 11.3936 47.2443
4.02397 11.9299 25.6226
1.63612 8.1047 37.4807
2.44376 8.18859 47.4877
4.24031 11.424 19.5259
1.69859 7.88483 34.8074
2.41314 8.91993 40.7429
3.44251 8.50652 22.1995
2.42707 12.4922 32.2831
2.27819 8.54569 20.3212
1.35313 5.80719 32.7804
2.81444 7.95368 19.4339
1.49103 7.17603 40.0105
3.56407 15.5903 44.5844
3.13134 5.54085 19.6273
1.4882 6.03641 33.1751
3.12459 7.7207 31.0625
3.50594 18.8232 68.9523
4.0633 8.7557 48.7521
4.90839 18.6979 52.4596
4.72621 26.3455 97.8471
6.68954 15.1684 41.5101
4.05143 14.3055 41.4757
3.18755 16.9552 52.0319
3.02449 6.94996 35.0681
3.1287 9.27904 29.8885
2.70087 10.3912 29.2906
2.47258 12.7575 46.4317
2.46991 3.64113 20.4767
2.5843 12.0159 39.5271
2.62929 6.89379 21.4614
1.60661 3.29551 16.7657
1.89331 8.50273 27.8081
1.87584 9.35947 48.3152
3.5517 11.2225 38.7811
2.85416 9.3891 22.2433
1.70922 8.72432 49.9251
3.89351 16.4667 101.91
9.53724 27.7597 52.6526
3.13122 9.67406 35.1541
2.68928 11.2572 47.7571
3.68944 11.0998 24.841
2.57635 14.2861 41.738
2.40057 5.51358 31.7686
2.96719 11.7739 34.1157
2.40375 6.98051 17.835
1.65013 9.83131 36.166
2.28054 8.40392 35.6571
2.79029 11.4915 30.0243
1.57682 6.41387 29.5787
1.81842 6.1952 27.0785
2.2225 9.00418 37.3473
2.55059 5.35494 39.6408
3.55518 9.20681 33.8631
3.07408 13.6588 32.93
2.39382 10.1101 39.5423
2.63759 10.255 53.7992
4.29567 11.1979 30.8284
2.74919 13.2996 37.8835
2.18201 10.5639 53.0841
3.74016 9.50074 29.0214
2.2598 7.90483 33.2288
2.78382 10.768 37.6834
2.5528 8.70891 33.6212
2.23566 9.06702 39.8588
2.48871 6.03976 21.7474
1.42209 7.01682 52.9911
4.56654 12.1538 28.7557
2.50395 13.2009 43.5295
2.69708 7.15054 36.0168
2.70231 6.91189 32.7053
3.13756 11.1722 15.0112
1.02653 5.70646 25.2424
2.46687 13.0017 38.7063
2.58625 12.1306 47.0983
3.16746 11.3774 34.7584
2.24309 9.55589 48.534
3.75767 9.62495 25.0083
1.74425 8.22603 34.7682
2.14786 11.0378 49.05
3.25462 5.93172 33.2775
2.97586 11.8012 26.7564
1.99346 10.0524 39.6551
2.63381 7.90618 23.2742
1.92116 8.14466 26.5576
1.92843 9.43725 45.9606
3.43962 9.58121 28.5725
2.28796 9.35517 29.6284
1.96455 8.53225 44.7615
3.47347 14.1014 42.974
2.66675 7.80518 28.5394
1.90432 7.60802 23.5498
1.48196 4.9074 29.4587
2.44413 8.33095 23.6908
1.55395 5.94676 34.5676
3.34359 16.2991 46.8488
2.86551 11.0034 38.4879
2.44759 4.17167 25.4606
1.99825 8.8069 33.2473
2.4675 7.15697 16.5025
1.12358 5.27488 31.5699
2.40467 10.5886 38.9988
2.54903 7.57658 25.3433
1.66863 7.03893 32.9074
2.47693 10.7607 39.6038
2.83415 7.59796 25.4131
2.23733 11.2751 43.9605
3.13437 9.46669 34.5853
2.41833 7.23783 27.3627
1.85599 5.48889 28.122
2.23576 10.0081 31.1684
2.34855 8.33417 23.6955
1.8021 10.7967 40.0747
2.64453 7.0775 31.3806
2.29953 11.4575 48.7444
3.18674 8.01709 26.6724
2.12358 11.3323 54.2613
3.33885 7.54834 26.255
2.00882 7.79351 21.5337
1.75571 7.45445 20.8716
1.43573 7.19512 39.8044
2.85606 11.0059 36.3004
2.30676 8.04414 33.4729
2.57229 9.3867 24.481
1.61405 7.18946 30.0377
2.37685 13.3205 49.8503
2.71307 7.18897 33.7279
2.51657 10.0073 51.2405
3.60254 12.5796 24.1447
1.45242 9.06845 33.5384
2.14065 7.97182 22.2277
1.49717 4.34024 23.727
1.85574 7.52474 37.679
2.58729 9.71432 36.5115
2.60349 9.0483 21.8704
1.30553 5.21349 28.7335
2.28863 7.82966 25.6609
1.80469 8.0477 29.4437
2.20701 8.57541 36.2092
2.51568 10.6083 43.8163
3.13977 11.6752 37.3571
2.43385 9.47703 30.2952
1.89038 9.16777 29.0557
1.52579 6.38182 26.0937
1.49032 5.38186 29.9153
2.1526 6.74797 15.5669
1.09836 7.87252 43.3712
2.78195 12.1977 33.0637
1.94987 8.80136 46.9505
3.06617 10.41 35.0995
2.40663 6.59745 32.3568
2.36169 9.97584 38.5437
2.59671 11.1541 35.6963
2.00371 6.8664 36.6813
2.15774 6.25022 35.7349
2.57625 7.67057 43.9344
3.4059 10.1774 32.0527
2.29244 12.0884 37.2862
2.42707 7.88449 26.5644
1.9698 6.55297 29.7662
2.28855 13.3064 36.2563
2.04626 8.32782 51.0522
3.81901 13.2512 42.1608
2.41751 6.57154 32.4869
2.46655 14.8177 42.1627
2.57109 5.78248 30.8757
2.35124 13.2376 37.7726
2.01536 5.64784 56.9739
4.36953 17.7586 52.4585
3.16862 8.84006 27.358
1.85696 9.46072 40.471
2.66498 11.0926 42.2496
2.81449 6.0108 34.05
2.68579 6.83231 22.984
1.694 10.7833 39.3128
2.45916 7.44761 26.4998
1.95108 8.24078 26.0813
1.6591 7.35194 23.3938
1.7894 9.25837 41.784
2.76311 11.2861 29.0656
1.45679 4.19286 22.0358
1.66811 6.47499 27.6198
1.60663 5.79 26.4415
1.94733 6.43064 29.991
2.1964 11.1284 28.9896
1.69667 4.69916 28.2518
2.08054 11.5784 45.879
2.77895 7.56302 27.2432
1.99924 11.5054 58.599
3.51277 8.65591 30.508
1.98263 10.9582 41.8547
2.50175 6.61643 28.8723
2.03262 7.02062 28.1171
1.92628 9.68513 37.3198
2.1118 8.87671 22.0282
1.25618 5.62362 33.6103
2.38156 8.93767 40.215
2.97574 12.5328 44.3954
3.04894 12.6051 34.2612
2.05403 4.721 29.7786
2.39947 10.0852 26.4458
1.69478 5.66342 38.1096
2.57489 9.88175 30.9979
2.02301 9.34191 51.1285
3.31408 8.3023 22.8411
1.62124 7.51946 28.9424
2.01547 5.44108 25.9282
1.82338 7.32465 32.2991
2.21692 7.63854 24.5438
1.38583 5.79399 37.7513
2.40383 7.75209 22.1736
1.49974 4.19592 14.9311
1.29526 7.88294 33.573
2.34113 12.1129 36.7705
2.13156 8.41106 41.8905
2.60002 9.22699 32.0635
2.22802 6.53992 24.868
1.51717 7.46473 41.8672
3.08696 11.5793 33.0482
2.0624 6.48737 17.4896
1.11288 6.33367 29.7704
2.11645 10.417 35.5377
2.26389 6.69233 31.3121
1.93319 5.91311 20.9629
1.24896 11.006 56.3429
3.97993 9.21448 29.4301
1.76535 7.52386 31.2765
2.3628 9.62174 28.9053
1.75729 7.94021 25.2523
1.49625 5.38471 35.995
2.52911 15.4859 35.6923
2.08533 4.42362 35.0003
2.26667 3.32321 28.7782
2.27258 9.13345 20.412
1.29306 5.22545 36.3246
2.55495 8.44384 20.875
1.28202 5.41889 23.5076
1.79559 7.46791 10.7053
0.658104 7.07149 46.1594
2.84555 6.39298 42.2146
2.81749 11.1844 45.5837
2.84363 11.1912 37.7518
2.36724 7.20082 31.5718
2.161 8.28459 31.4749
1.9108 5.79861 27.5994
2.01884 8.95486 34.5944
2.03783 8.20768 28.1351
1.94011 7.00535 21.9135
1.27287 9.4107 46.5855
3.0723 7.96151 48.1343
3.08917 11.4578 29.8867
2.02299 9.52201 32.5618
2.02948 5.66169 18.4966
1.1457 8.84006 35.4693
2.17629 6.26263 24.1556
1.81473 13.335 42.322
2.56499 8.5342 25.9286
1.65769 5.32343 28.9634
1.85508 7.79685 33.0817
2.10592 5.32093 39.3594
2.60196 7.65084 26.1489
1.81372 9.17223 35.1551
2.26348 9.12001 35.1583
2.27575 8.69413 35.1968
2.15209 6.72 19.6803
1.35263 4.4832 25.7908
1.86832 9.59877 54.0491
3.38421 13.5824 29.5658
1.99978 13.2666 34.7775
1.94453 4.5961 28.1402
1.92585 3.87452 25.7344
1.7602 9.31504 37.0324
2.43022 12.1838 40.5113
2.5696 10.582 34.222
2.26922 7.633 23.3773
1.44033 8.0399 51.6036
3.08997 10.0837 32.5317
1.97704 5.77371 19.6258
1.39213 6.27278 33.5688
1.92416 10.0214 41.7479
2.77942 12.3384 39.7307
2.595 6.92363 33.1621
2.30752 7.18642 29.9127
1.93701 9.49098 30.8883
1.96266 8.03923 30.6177
2.03042 6.86587 33.4116
2.3508 8.3504 43.182
2.67988 7.37115 31.879
2.0296 8.00231 38.5374
2.66893 13.421 43.2833
2.85166 7.99392 25.1283
1.36531 5.99651 40.7569
2.43698 10.9016 30.7426
1.79788 6.86728 35.9094
2.30927 8.70961 34.3889
2.07211 7.32527 21.1489
1.18812 11.0059 39.8428
2.42868 7.90231 25.3043
1.85253 8.46455 35.222
2.59882 9.4389 42.5312
2.8795 12.2418 45.1195
2.93053 6.91767 53.926
3.73198 14.4318 25.4159
1.6294 6.04928 36.7475
2.62459 11.4035 38.9816
2.60276 6.03731 38.6832
2.36976 8.99431 54.4673
3.55206 10.7385 25.1784
1.69145 7.54519 30.4678
2.08544 12.3546 57.0249
3.57864 10.307 31.2551
2.04292 6.54836 21.9076
1.3032 9.62251 28.5958
1.8143 6.10543 31.2801
1.97349 8.54536 47.159
2.89159 11.5588 34.7606
2.14879 5.43003 35.3174
2.08475 8.30189 13.5095
0.829339 5.31356 27.4438
1.74739 9.81297 43.0962
2.7539 8.40209 36.8328
2.47751 0 0