# pn-170911/RbIIR-56-TWTF-1280-1959.psd
# Power spectrum* (dif=0,1,2) (really just |FT|^2)
# NOTE: only the first half! (symmetric)
# weeks: 1280-1959
# 10 clock-days, 0 excluded
# PSD: 1441
1563.85 0.072204 0.0122318
34258.6 0.278826 0.0168685
279433 6.31951 0.0163939
13588.4 0.41618 0.016535
81324.5 5.93313 0.0177704
4541.48 0.429082 0.0162188
6250.89 1.09483 0.0156285
2433.51 0.469301 0.0171115
3052.49 0.69556 0.0169569
1818.4 0.819498 0.0179818
893.662 0.566672 0.0182635
1769.22 0.862477 0.0195162
1201.69 0.693339 0.0170173
823.645 0.487627 0.0166708
759.589 0.513409 0.0189911
305.381 0.330614 0.0177803
666.492 0.831784 0.0192341
758.094 1.2093 0.0219344
621.002 0.581092 0.0180076
577.018 0.787207 0.0193946
561.579 0.801822 0.0179827
488.878 0.934395 0.0130404
580.388 1.18125 0.0182677
494.247 1.27192 0.0183232
452.179 0.812453 0.0205962
363.056 0.761011 0.0170327
579.596 1.51654 0.0224897
341.165 0.969864 0.0213145
403.39 1.32345 0.0199214
265.699 1.05583 0.0183192
755.308 2.77162 0.0288185
259.785 0.942788 0.0202132
364.489 1.85349 0.0207574
863.369 3.9093 0.040167
410.419 1.95721 0.0297306
339.347 1.88625 0.0284444
201.208 1.15726 0.0231146
474.105 2.70984 0.0309115
387.597 2.56767 0.0340144
250.386 1.56257 0.0248062
157.428 1.08248 0.0257185
259.642 1.71998 0.0198135
245.54 1.95015 0.0419629
190.139 1.43579 0.0196971
345.269 2.40713 0.0339476
147.07 1.551 0.0312859
283.171 3.01547 0.0401502
320.112 2.96585 0.0436752
270.303 2.78405 0.0399462
318.638 3.3437 0.0569749
214.461 2.56411 0.0419765
268.877 2.97897 0.0366013
239.916 3.04772 0.0447175
179.93 2.60564 0.0492401
227.133 3.43983 0.0598473
217.11 2.55191 0.0406398
194.279 2.98558 0.0570375
210.536 3.04574 0.0579999
529.259 7.64497 0.150917
266.019 3.9005 0.0853717
245.43 4.2827 0.116246
171.34 3.28802 0.0765793
338.264 5.91501 0.125961
467.521 8.32661 0.151934
308.053 6.30681 0.167832
135.797 2.46646 0.0733463
288.775 5.67029 0.122598
198.991 3.81157 0.107372
182.506 4.20579 0.119323
179.314 3.6818 0.0864753
152.333 3.18528 0.0790504
184.215 4.43465 0.142492
68.7914 1.99695 0.053665
133.078 3.68261 0.122875
192.648 3.79176 0.116619
132.825 3.28536 0.0969311
157.55 4.20245 0.135807
183.334 4.83979 0.153852
108.947 2.90293 0.110856
115.154 3.78693 0.134712
164.465 4.78201 0.170503
143.092 4.23898 0.137163
149.241 5.22851 0.18473
246.763 7.23378 0.28984
235.713 7.24625 0.203872
237.03 7.96289 0.263396
129.958 4.18907 0.156902
146.266 5.1933 0.232376
184.418 6.50327 0.24067
128.838 4.21528 0.131242
78.1327 3.65923 0.156334
139.156 5.0801 0.260587
189.895 7.20681 0.284727
97.9423 3.401 0.11973
172.769 6.49665 0.318194
191.325 8.47228 0.433454
124.789 4.72737 0.214264
300.396 13.2176 0.528659
84.8592 3.99721 0.185158
150.272 6.82702 0.331193
109.932 5.13461 0.264106
177.553 9.18314 0.418057
225.093 9.96819 0.500978
139.073 6.13109 0.386501
96.9277 5.2785 0.266872
106.765 5.81372 0.311365
174.588 9.81039 0.521473
94.8065 4.30485 0.243222
155.042 9.78237 0.552941
129.209 6.84023 0.360646
119.154 6.6803 0.396803
163.958 9.58234 0.57792
142.37 7.88368 0.430664
124.392 6.90029 0.434192
121.011 6.93194 0.443797
121.86 7.92397 0.535869
90.1659 5.78996 0.442153
131.809 9.6086 0.747931
178.107 10.793 0.718435
204.735 14.1529 0.939434
129.726 7.66885 0.480367
118.925 8.02872 0.627543
125.727 9.11032 0.604411
109.565 8.56689 0.696071
141.038 8.53177 0.566965
108.644 8.41407 0.684508
103.324 8.54257 0.716709
80.0009 5.51256 0.445286
153.994 9.81183 0.664848
109.778 8.00916 0.581845
99.9142 7.25884 0.642144
74.1465 6.76199 0.589207
85.6909 6.04871 0.43998
74.1626 5.71852 0.473608
122.692 8.96567 0.764356
98.0589 7.77643 0.735185
118.01 10.0623 0.941013
64.9988 5.42907 0.548755
101.091 10.0743 0.961175
144.55 12.5911 1.19672
90.328 9.08337 0.894558
130.777 11.6421 1.07788
75.4423 6.31035 0.580196
116.115 10.7774 1.04266
70.6745 5.90175 0.554196
103.136 10.7284 1.28766
102.356 10.0208 0.98194
80.5434 7.50626 0.691637
80.0764 7.96992 0.829552
120.122 13.2987 1.46328
88.2105 10.0981 1.12574
125.687 12.8122 1.35651
83.4131 8.56073 1.00526
102.681 11.3793 1.27008
69.6692 7.26361 0.842129
113.988 12.7848 1.46648
105.816 10.7055 1.12868
73.3467 8.94967 1.05711
110.347 13.4797 1.58647
72.7716 9.97721 1.27302
100.634 12.0075 1.52829
59.4014 7.63069 1.04037
140.754 17.5435 2.20042
63.5097 7.49034 0.917198
60.9617 7.06112 0.998986
84.1628 9.98952 1.14313
99.5987 12.3101 1.60571
106.039 12.2751 1.54182
85.2256 11.7734 1.63162
63.6822 8.78402 1.27121
71.1268 9.89185 1.24359
55.7278 8.1497 1.15496
68.3298 9.15243 1.38518
110.508 15.72 2.03077
85.1308 10.8997 1.5792
122.977 17.8828 2.65754
98.3636 14.4346 2.31296
129.199 18.1435 2.81116
85.6641 12.7142 2.01003
109.198 17.0745 2.76185
106.929 14.4767 1.82103
50.1366 7.65008 1.24134
130.207 19.6027 2.9633
52.4799 9.15644 1.69158
89.6916 13.2539 2.08014
87.3375 13.3623 1.98698
75.3063 12.825 1.98711
54.7242 8.74516 1.40105
53.2953 10.2158 1.65913
57.8115 9.30264 1.64324
87.1305 14.1829 2.41117
95.2654 16.7679 3.06792
77.9649 12.9878 2.43831
86.964 14.1121 2.46339
98.5556 18.6657 3.5405
81.1728 11.9477 2.02972
116.84 20.6713 3.68615
51.725 9.84363 1.95289
71.2029 12.7063 2.24253
57.155 11.0444 1.95145
59.1943 10.6272 1.91585
118.266 22.1636 4.02521
78.6296 14.9172 2.79931
62.5603 12.7701 2.58653
56.7565 10.048 2.20198
47.7999 9.41801 1.78415
101.699 18.4414 3.50219
39.0693 7.734 1.53779
52.4555 10.4468 2.10299
31.9751 6.47097 1.21056
97.53 20.9944 4.56957
36.9135 7.97787 1.8953
148.083 32.5105 6.82227
71.6694 16.4774 3.67653
80.677 15.9035 3.21864
73.2555 16.5261 4.17699
90.7836 19.5525 4.14224
99.9772 21.5699 4.64009
57.048 11.8783 2.6054
67.0017 14.2849 3.0775
101.551 24.9117 6.0016
102.576 23.001 5.20392
42.3514 8.08384 1.85005
39.0997 9.23454 2.25963
63.0248 13.7997 3.12826
90.8006 21.3415 4.83722
58.6954 13.228 3.21667
51.66 11.6388 2.6119
67.9305 17.7807 4.35081
62.6313 13.953 3.32129
43.7903 10.4946 2.80684
38.9674 9.68445 2.61469
28.6812 6.08563 1.46723
68.7602 15.2509 3.41503
72.5725 16.8479 4.03294
74.0774 19.6451 5.10667
30.3184 6.89515 1.9016
33.3221 8.31469 2.06342
64.744 16.366 4.22951
80.6215 22.3238 6.09493
88.0725 23.1906 6.39227
33.6261 8.73622 2.53117
35.2283 10.6267 3.20033
76.7211 21.8928 6.94448
95.1862 26.2875 6.83802
51.4393 12.7088 3.61734
85.805 23.1559 6.05265
62.37 16.393 4.57317
133.137 36.3801 10.0752
57.2806 17.9367 5.38924
38.422 10.9723 3.24218
40.0934 10.9686 3.22756
32.3909 8.3481 2.08998
74.9386 22.2458 6.00088
38.7729 11.6539 3.88526
43.2496 14.2101 4.46799
41.2573 12.3955 3.99742
57.7506 19.8451 6.91229
39.9381 10.9749 3.29303
68.5826 20.9141 6.49501
66.182 19.8329 6.2314
59.3298 19.2638 6.13603
47.3315 15.3631 4.95318
55.5621 19.0156 6.33231
69.6066 22.0773 6.67345
27.6008 9.3719 2.97722
34.1817 10.8081 3.35124
28.2053 8.17424 2.76924
67.186 20.5202 6.16497
59.8142 18.7106 6.40819
48.7113 18.4489 6.78531
72.503 25.1231 8.19965
49.3641 17.6507 6.81788
56.6646 16.353 4.46184
50.17 19.4212 7.27377
45.1959 15.0782 4.84358
45.6202 16.8126 6.43727
45.1338 14.4005 4.4186
22.3503 8.96745 3.72775
60.3158 22.2764 7.51562
48.41 17.624 6.5699
68.8123 23.8229 7.78845
47.7924 20.1316 8.32754
57.8464 22.47 8.12299
58.0515 21.9523 8.96028
50.7466 21.4518 8.77161
67.998 20.0411 6.35142
51.0725 19.371 7.27122
59.7679 22.3021 9.18039
51.4733 18.4296 7.47924
34.218 12.0706 4.48465
47.349 17.777 6.53615
43.666 19.9569 8.35045
41.7411 14.0148 5.09129
47.5342 18.7316 7.27491
22.6362 11.2209 5.35964
54.6018 20.3273 7.36601
41.8988 16.0393 6.36224
48.8368 20.4881 8.38314
80.4389 31.6906 11.9259
56.3682 24.3902 9.97347
32.3664 14.2251 6.07202
38.1951 16.0346 6.612
50.3872 21.0715 8.73626
31.5036 13.7363 6.60467
27.6626 10.7214 4.23171
30.3611 11.4658 5.29979
66.2702 27.9285 11.5643
47.8325 20.7432 8.99272
26.5261 12.605 5.6283
32.1567 14.9764 7.38066
27.5782 12.5211 6.3138
28.7337 9.47474 3.2372
26.5181 12.0118 5.62614
18.0257 9.97187 5.63711
56.3948 23.9543 9.98025
46.3733 21.2783 8.58232
32.7429 18.2392 10.3149
48.7178 20.2764 8.67115
33.3793 15.1873 6.7493
46.995 24.0856 11.7431
37.8697 15.6846 7.04347
34.3761 16.7235 8.12734
59.2073 26.5554 12.4758
37.3208 17.3667 8.53189
57.9334 29.7666 14.9649
30.11 11.2741 4.59149
45.5726 24.2484 12.1461
41.7439 20.081 9.44115
29.1938 17.9693 10.1679
21.001 9.47951 4.89599
28.5453 14.1057 7.80761
51.2114 24.8089 12.6224
25.3483 11.8815 5.91108
41.9963 23.5543 12.3761
29.0241 13.3987 6.39333
31.2475 17.3466 9.5392
21.861 10.3358 5.75287
30.4255 15.3795 8.27713
56.9396 28.8226 14.3692
71.7279 36.9822 19.1187
47.1717 23.9111 11.2008
32.3819 16.6549 9.06271
25.2542 13.9074 8.18659
24.0541 10.9316 5.15974
26.4289 15.1315 9.39324
41.805 26.1622 15.3462
66.2611 29.4611 13.5615
25.0938 16.0083 9.44615
21.6183 12.0739 7.20524
41.813 25.1163 15.3489
56.3533 28.842 15.6605
17.7734 9.18469 5.81096
27.4429 13.4554 6.80766
38.1978 21.8521 13.2961
39.6955 18.3346 8.14515
39.8496 23.8131 13.1525
45.0358 26.1328 14.9508
25.1462 13.2808 7.03748
19.0655 11.5796 7.83834
43.2665 24.5993 13.1732
25.0538 17.7084 12.6966
33.246 17.2812 9.69405
23.1224 14.3353 9.09777
34.8416 17.8578 10.2189
38.1606 21.437 12.1274
47.8227 27.6938 16.4552
34.8674 18.352 9.5347
24.9293 15.532 9.53915
29.0922 19.1899 12.098
18.2032 10.3519 6.79398
35.7454 24.4232 16.1146
31.4271 19.6235 11.5807
24.432 15.1481 9.9821
32.227 17.0919 9.9187
36.3048 23.0039 14.1814
25.6643 18.8027 13.6069
27.4978 19.7728 14.6912
26.4708 14.662 8.98113
40.2273 30.4321 22.6188
37.2203 15.9507 6.21916
28.5454 20.0546 11.8835
35.1004 22.4024 13.6323
30.7369 24.8726 18.8731
29.3979 16.7783 10.0236
22.0413 13.9164 9.30108
26.93 19.2056 15.0029
39.6376 22.2418 13.2532
40.3222 26.6047 16.4237
26.6171 17.7598 12.5892
24.8019 14.0528 8.22273
33.3191 26.7318 20.3773
26.8758 16.9069 11.7806
22.265 13.3579 8.52404
23.6367 17.3191 12.6147
19.7338 13.6296 8.69282
14.4212 13.022 11.7526
20.6976 14.7268 11.9901
43.0858 27.3153 16.433
20.8894 15.6097 11.1777
12.8296 7.15043 4.62423
26.529 19.861 13.8337
23.1685 17.319 13.2349
26.186 20.5161 16.7445
40.0371 29.9706 22.0414
37.8967 22.8392 13.928
18.7384 16.5937 14.4602
41.6584 30.9323 21.1164
23.5205 17.0739 12.7731
25.6929 17.1397 10.939
19.8712 18.6493 16.7056
30.5032 21.2506 15.774
24.8596 18.0136 13.509
25.1071 18.7991 15.1184
24.6103 22.4793 21.9333
48.4603 32.5439 23.2153
28.6024 20.0933 14.6363
27.108 19.509 12.6473
14.3219 11.3709 8.74844
15.2667 13.1814 10.8941
34.7572 26.6551 18.219
10.618 10.6345 12.5267
31.2656 23.2763 17.5891
20.1665 12.5535 8.42816
45.3894 35.4036 23.3884
10.9563 13.355 14.9547
19.894 15.188 11.2884
18.0632 15.7394 13.8375
33.5653 26.2327 18.9996
19.6476 15.1294 10.78
32.5774 30.4654 24.2666
8.59844 8.80152 10.2625
17.3855 13.3084 10.2619
21.5317 19.3716 16.234
20.4363 20.7196 20.4102
20.3171 14.2689 13.0072
28.6857 24.3834 20.2668
18.8381 10.3346 6.15889
26.0496 26.0044 24.1749
16.3801 13.1207 12.4078
26.5875 19.8951 15.0393
19.2569 15.741 13.087
9.69826 6.51952 5.60916
21.6772 20.5509 17.2112
21.7574 22.7661 23.5826
33.4238 25.1671 19.2533
14.5264 12.7609 12.6568
26.735 25.6357 24.5089
20.0278 17.0979 15.3917
23.8156 19.6772 16.7545
18.8614 18.2614 16.3015
17.2259 15.9637 15.4297
19.5394 16.9261 13.7512
22.1557 22.7439 22.5133
29.6304 24.2002 19.5161
16.3543 13.2289 11.9488
12.425 12.2322 12.2073
18.587 15.7212 14.4348
25.7139 22.4354 20.4107
28.4424 29.0616 29.5848
30.9276 25.1652 21.7696
10.9504 9.77375 10.95
31.7018 32.2833 31.5181
25.4378 19.8319 16.6787
20.9792 19.0957 16.74
12.6319 10.1255 9.21751
28.2488 25.4077 22.3169
26.8712 26.5767 24.4443
14.9779 15.3417 16.8387
23.7713 22.5773 21.6143
30.3111 23.9499 17.8914
28.4325 32.1871 33.8761
15.0724 14.5753 15.4271
15.4311 14.057 14.7556
19.533 16.051 12.2471
21.4058 19.7266 16.8707
16.5934 17.8161 15.7892
8.5609 11.2099 12.0123
14.7817 17.56 19.557
16.9518 16.247 14.5631
10.7999 12.2263 15.9253
23.7525 20.0051 15.4759
13.2104 19.0399 24.3082
25.8765 22.01 20.0179
24.0844 30.4208 37.3786
35.6141 31.8383 31.5572
23.0369 20.4154 17.9879
14.8767 14.3904 14.1334
25.6247 27.3021 25.733
18.3022 19.6743 20.3903
9.22731 12.9304 20.7312
23.2683 21.9604 21.2109
23.0317 22.2296 19.3071
16.5087 24.5258 31.5742
23.4365 20.3388 20.1063
21.5155 20.1163 19.8521
25.0589 27.6718 29.3166
14.4851 14.8469 15.9951
19.4117 24.2702 26.774
18.0536 19.959 24.3732
29.2533 26.7584 21.751
13.7804 19.8956 24.5553
13.9511 11.6291 13.1386
21.6927 23.9716 26.1595
23.3677 27.8798 32.136
23.9955 22.0723 18.9487
14.0478 18.2773 22.6414
18.9634 18.0854 17.355
10.0634 11.2604 13.7697
18.4655 20.4207 21.5592
13.7912 16.0684 18.3075
12.7363 19.8461 29.4163
26.6827 22.0551 17.3762
23.3353 29.41 35.4091
22.2489 24.1065 24.8917
14.1397 14.8227 16.6052
14.4531 15.082 18.6771
22.2508 28.8005 35.0349
24.7914 24.7611 23.7809
10.3637 11.4997 12.9096
9.2591 13.2209 19.1798
18.8829 20.5228 22.779
21.5118 28.9448 33.1931
14.3357 18.0414 22.0144
9.46047 9.8872 12.2934
14.9919 21.0447 31.3295
22.1502 22.745 23.5063
9.59978 9.77126 9.49614
9.46211 12.8698 17.4538
17.6852 22.8561 27.8055
8.15586 9.53666 15.7862
16.1137 18.5126 19.0036
6.46137 6.48357 7.98512
8.48535 12.6585 20.8789
18.9173 18.5539 18.9241
12.1139 15.3601 19.7441
23.8486 31.5434 34.335
10.6856 12.1232 16.7582
17.2366 23.1217 31.3815
10.4981 9.44542 11.1933
10.8738 12.2128 15.2856
10.5604 10.4101 11.401
8.82219 13.7099 24.8837
24.9821 23.8521 21.3707
16.2897 21.574 26.5185
15.4463 20.2615 24.0139
11.6029 18.9579 28.2643
12.9099 12.571 14.124
16.032 19.1394 23.1355
11.1586 14.7675 21.0395
11.9586 14.6187 15.4253
6.71722 11.9726 20.6056
11.3887 10.8726 12.2112
12.3659 19.1874 30.1878
11.5052 9.75367 12.2099
17.2314 25.7617 33.8234
15.5658 15.9792 18.7466
16.9417 21.7631 23.7799
14.8146 22.6738 37.6635
26.324 29.2664 28.5976
12.2135 17.6813 22.6279
8.17666 10.8684 18.4666
13.8286 17.5588 18.314
6.02962 8.53424 13.2434
8.12502 12.1299 17.5285
8.50752 9.13247 11.449
16.2236 28.6404 46.8485
18.0472 16.1803 17.3236
16.5159 21.2488 23.4793
10.0422 15.6017 25.6849
19.4556 20.4587 17.2331
8.0561 15.3006 24.9577
20.7512 26.0403 28.7387
17.0095 30.9604 46.2663
21.5369 28.9854 39.0042
16.0952 21.5767 31.9176
12.9693 16.0399 18.2874
9.42683 15.417 26.0066
17.3578 19.5026 18.319
10.1073 19.219 28.7297
9.74637 18.5512 34.6806
16.5126 19.0076 23.4823
10.4922 13.6589 18.0667
14.7126 25.4088 37.8246
19.5079 31.8479 45.8003
7.24923 8.57242 19.1966
17.0598 21.6427 29.3273
19.9531 29.8117 45.5434
20.1199 22.4327 22.4474
13.7604 27.6518 43.8508
8.84003 12.5449 22.0134
11.5525 17.7884 33.5025
24.1318 35.6347 46.2089
13.1737 17.4177 29.9914
18.4738 22.5968 32.1901
21.743 32.8262 42.738
9.42546 13.5306 22.5333
12.3226 16.8635 24.6281
10.9257 16.9873 28.6674
13.7034 19.1635 29.5547
12.9143 13.7552 16.4051
12.1246 20.4974 30.6477
9.65161 14.656 26.8257
15.3328 18.1759 25.8028
15.6835 24.7816 36.9609
12.7712 17.1267 26.9146
17.8945 23.7173 29.3293
11.0632 20.8831 38.0423
15.3781 18.3917 25.6126
12.7354 23.7851 41.864
15.144 15.9705 25.8101
18.3837 22.4268 24.5503
13.7096 23.3246 35.4503
13.0716 18.2548 22.1324
14.8426 27.4121 45.0573
11.1286 17.4529 36.2754
22.3666 30.9276 39.9503
16.6299 25.7711 35.3149
11.299 14.6009 21.2533
14.607 23.235 31.7305
7.6124 10.9028 21.637
17.2003 26.8499 37.4957
17.1616 27.4903 39.7028
9.35135 12.2178 15.736
7.70701 17.8821 34.1481
10.9545 18.9137 39.9349
17.7182 26.0723 39.648
13.5075 17.6514 27.0857
12.7126 20.995 34.2058
20.9748 33.2381 46.3225
7.11091 11.3497 24.9407
11.3298 15.8056 25.2773
21.8796 33.5333 43.001
15.0755 32.993 57.3594
12.4655 14.1963 19.3582
9.26705 13.3854 16.996
5.01981 10.4178 20.6598
7.49874 15.1189 33.4341
16.4554 27.0523 43.9698
13.6367 21.6723 38.3127
12.7967 16.0967 18.4687
12.3676 24.1692 33.2311
6.8946 14.3416 26.6529
8.14324 17.3033 35.8724
14.9971 20.5983 26.0214
10.5731 25.5123 52.4932
12.269 10.8939 12.5898
9.67635 17.3489 24.1842
8.85641 16.2625 26.5037
6.52853 10.8696 16.9256
9.85298 18.3286 29.8341
13.5557 27.4745 43.0494
7.46638 12.4785 23.7251
8.65517 17.8393 33.8129
11.8766 17.7872 25.7063
8.21904 18.9956 37.7604
8.80625 13.1418 26.8049
15.2532 27.1247 40.3739
4.42149 9.45165 25.3013
11.6435 19.9191 39.7589
9.66264 14.1836 26.8623
10.5566 14.8002 27.3016
15.0259 25.6573 42.0364
14.5998 27.3157 46.5487
12.0301 14.2328 19.1935
9.62539 17.2531 26.3594
13.7514 29.2091 50.099
10.1626 17.1163 28.9217
6.68118 15.8335 41.0109
13.9469 19.7975 28.7075
10.1024 20.3798 38.6988
14.2976 27.3655 48.6106
6.96289 8.73754 20.0203
11.1976 19.7297 28.6381
4.09573 10.4343 29.8261
9.02402 14.8433 27.8804
11.0379 16.5393 21.1442
4.17263 9.39384 23.1924
8.30524 13.4102 24.6317
11.1496 21.8372 41.7598
7.6774 9.70485 19.6457
15.5897 29.6174 45.6187
7.68393 15.6571 30.6712
8.18977 18.6701 48.4905
16.7565 24.6516 35.0141
8.8979 19.3282 45.6564
13.1034 22.6331 41.3223
10.0121 14.2784 26.8285
8.30358 12.802 20.1303
7.69245 14.0864 28.9718
9.26788 15.2359 24.0954
12.2971 22.3383 35.7406
11.1286 21.6826 37.267
9.30415 17.3454 29.2265
10.8158 21.9984 38.4431
6.76681 11.7931 20.0249
4.2121 9.75908 20.2167
4.76761 9.86844 24.2621
9.77473 18.6377 36.1436
6.23155 9.69031 20.306
8.64846 18.2611 39.1972
11.0561 16.8171 29.4244
10.1977 20.1213 36.6835
9.42499 17.1555 31.382
9.69062 20.7486 41.0334
6.87556 11.4677 23.7104
6.06337 12.3043 25.1112
6.79535 16.7757 42.3041
11.4765 16.7228 24.2254
7.80809 16.4981 34.052
12.17 25.6506 53.0526
12.7121 17.4766 22.7515
7.26448 16.0049 28.3183
8.20394 18.284 31.6262
5.67208 13.8369 28.5272
4.81025 9.27276 25.198
8.02908 12.803 20.2951
2.36647 7.68866 33.7424
13.5281 18.1532 25.6572
12.2923 23.2308 34.4528
11.8336 26.5326 41.3571
3.38479 10.6214 27.4595
2.85897 7.41093 23.5094
6.53493 14.6655 32.7915
8.54018 15.678 28.5077
5.13504 14.0232 43.8547
11.1617 16.1616 25.3488
9.98993 21.4953 41.634
11.0422 22.9872 43.7421
6.99649 8.91413 17.0033
8.37653 17.2472 28.3725
6.66801 14.9068 33.0117
10.0411 16.9518 22.2457
2.58695 6.6418 19.7232
11.9834 29.6268 56.2426
6.60573 15.9571 44.4457
10.3806 16.3737 27.7588
8.2593 20.3273 42.9699
10.0446 23.9642 49.0408
6.19026 8.14898 15.527
4.33878 10.8749 24.3366
6.91648 13.2787 21.9929
5.23114 16.6151 42.1495
8.31867 15.3124 30.4243
6.46143 14.8673 27.7351
4.90624 14.5647 45.5965
10.288 15.7222 26.7232
7.34125 14.3342 24.3659
6.71997 18.8864 39.3546
6.51101 18.2472 40.3537
5.38278 12.2319 40.7567
8.2797 10.3001 21.4254
8.4523 17.7605 36.5838
6.31138 11.614 30.9691
10.1899 17.6396 30.5678
6.71453 14.9738 31.9136
6.61415 12.7507 27.3142
7.18028 15.1395 32.4879
5.37947 8.77798 20.767
10.0146 23.8512 45.1479
8.98273 23.5542 59.8792
10.3762 18.7141 32.9583
4.64112 9.64463 22.7186
4.79782 8.19079 18.3657
9.46349 21.8491 36.2657
5.4398 14.0871 26.2173
3.98801 12.9367 38.9911
7.86891 16.335 37.6048
10.7446 25.7729 58.0389
8.41134 15.6316 31.9656
4.16797 9.44391 30.9497
10.2691 20.935 41.4498
9.59718 24.1638 51.2287
8.68852 19.3119 35.9304
4.50269 12.67 42.9542
9.1348 17.368 38.2552
8.43906 14.0238 22.3594
5.27825 13.1715 29.6823
5.44267 16.4657 44.3311
6.43155 9.59931 18.2821
3.04415 9.58129 33.252
7.35682 15.6148 38.1016
6.80028 13.333 44.6728
12.0335 19.5868 24.4534
5.22076 12.627 24.3532
5.77441 16.6821 41.7171
7.43651 13.6336 36.1644
10.1609 19.0944 28.5014
6.19197 20.2219 50.004
6.87983 11.6202 35.0149
10.3125 18.7599 23.1212
4.8539 14.2186 30.0774
4.69085 9.98735 17.2351
4.7869 15.3819 36.0992
4.50077 11.6981 28.3196
4.46188 12.1778 39.1189
10.1911 22.6197 35.1569
4.0785 14.6968 43.0274
7.79942 16.0437 24.4241
3.88469 16.8431 44.7327
4.0677 8.23734 28.7673
4.8155 8.54912 30.2832
9.75464 25.5512 55.9093
9.13723 23.3007 59.3768
8.70486 21.3316 65.3803
12.9855 22.3074 35.1657
6.35427 17.6016 38.4511
4.41453 10.3086 22.6537
3.28617 8.66984 26.5882
6.66564 17.6595 39.8058
5.55745 11.7862 27.008
3.54805 11.2052 42.9009
7.55491 13.7218 27.2305
4.57389 10.4112 28.8716
7.63816 22.2118 46.5948
4.17522 7.22033 27.1057
7.1244 13.7647 28.2867
5.83575 11.5389 18.5988
4.00344 12.8489 35.502
7.32308 17.7172 36.5388
3.59716 7.98668 20.1415
3.06528 10.2012 35.0107
5.70665 6.12079 6.91866
5.3588 20.2326 50.6287
6.55043 14.4677 28.7027
4.90572 16.7258 48.0339
7.21409 15.3347 35.9335
4.23683 9.65282 30.4494
6.54168 16.0818 42.0676
8.489 21.0379 51.9089
7.24653 16.7431 34.3964
3.82092 9.49587 30.5239
4.7688 10.808 24.8342
3.48534 9.88226 32.2495
5.12268 11.0932 37.8316
7.26832 12.8771 24.5569
5.41624 11.8127 24.4553
3.95237 11.7501 37.7108
6.4803 13.7891 38.0353
8.79231 21.2443 48.9896
8.66495 20.7021 44.1948
7.83317 19.822 40.8144
5.76291 16.6272 40.1115
3.32516 7.84526 30.8944
5.34868 11.1677 28.0285
5.70203 15.1161 33.9626
3.94318 10.2385 31.6741
5.09514 11.5441 37.82
7.67667 14.7796 33.1452
7.50719 18.3361 33.0653
3.93854 10.8395 26.4446
2.9799 9.77752 36.8604
6.3623 15.0584 38.3262
4.68718 9.51997 28.5402
4.97771 11.8071 31.2403
4.59839 10.6387 21.3403
3.34305 11.1484 37.7968
7.88136 18.6304 40.3135
4.26176 11.7466 42.2881
7.77096 15.6351 30.1547
4.20513 11.0032 37.1168
8.15309 20.1859 39.7095
4.44939 11.1837 32.5143
3.94647 8.72118 26.5652
5.37609 13.4636 30.3367
4.22153 10.7102 34.0271
5.02302 10.8011 24.9485
8.05178 30.071 63.547
3.35676 6.81235 26.5779
3.48018 7.14482 28.2509
6.46838 15.7449 31.5811
3.70351 13.4851 45.523
5.93202 9.5292 28.229
6.58723 17.7807 38.8218
5.69114 16.1915 43.7035
6.56062 12.8603 23.9036
3.57847 12.7463 38.9832
6.26323 16.6874 45.4781
5.76724 12.909 32.7172
4.07299 9.22108 25.7703
6.76697 22.0004 63.0973
7.94038 18.4495 33.4448
4.12819 10.9807 28.255
2.92665 5.90325 12.66
2.21788 8.58084 36.0144
5.70043 12.8921 27.294
3.87724 9.71504 23.8745
5.16735 18.6493 49.2041
4.84426 13.5721 37.721
4.13596 8.95445 24.0454
3.08873 10.7172 31.6002
4.04123 6.99364 14.3749
2.47254 8.08807 22.0848
1.71081 3.24793 14.0737
3.74917 12.53 34.7005
3.33983 5.73811 21.2299
6.08246 17.3787 36.6246
2.84849 8.96498 32.7835
5.62083 14.3222 32.6269
3.50739 11.6997 39.1224
6.25151 17.5049 43.5615
4.42303 10.7611 31.524
4.81281 14.4966 38.7546
4.82574 15.6919 45.8089
5.02168 14.6324 36.9101
2.85322 7.79341 32.0936
4.84639 13.3549 35.1884
4.52732 12.5065 40.2818
6.12827 18.1075 42.5994
3.88853 9.93381 26.0341
3.02311 9.16556 26.9441
3.39197 7.70342 19.4487
3.29948 10.8675 32.3332
3.313 7.73348 20.694
3.64128 14.5893 35.3984
2.94473 13.2256 65.4861
7.01468 9.48162 14.5012
2.95011 9.61559 31.813
4.97456 15.1876 36.9639
4.23465 9.88201 30.5518
5.03964 14.2012 29.9293
2.8798 9.98989 38.1054
3.88442 5.87188 12.5892
2.53429 6.51976 20.0703
4.50081 14.884 44.2688
5.69861 15.2172 35.2186
5.04905 16.9748 36.5932
2.88876 8.69728 29.9026
3.7459 12.8546 49.6092
7.8566 20.4294 50.8134
5.40818 14.8289 36.9134
3.76999 11.5261 33.8093
3.11345 11.1015 41.5416
5.27469 13.8024 33.668
4.04163 11.693 34.7913
3.97628 13.9044 51.6301
5.22507 9.75909 27.6622
3.24825 10.1292 39.2607
5.14798 16.9653 67.4427
7.99461 16.7005 30.4972
4.55599 17.3525 54.9876
6.80627 15.5747 36.1513
6.5213 28.3009 70.6932
4.78929 10.0635 34.376
6.60428 22.1306 49.3904
5.33776 19.3574 56.5938
6.28563 20.0792 56.7127
4.51165 11.2803 37.6334
4.68493 14.6433 39.5074
4.83827 16.7502 46.1523
3.66178 10.038 35.3549
3.38929 7.47889 27.1249
3.26147 8.65888 29.4743
3.5933 9.26612 24.0501
3.25854 13.0338 53.3897
8.20111 23.1865 46.5021
4.87518 18.973 47.8678
3.51524 11.5166 38.3742
4.39328 15.3555 54.4366
6.27467 20.3475 58.3336
4.79387 11.2461 28.4474
3.55207 12.2462 34.9023
2.83813 11.7753 52.9542
4.92949 9.92299 33.5027
4.94455 16.4493 42.923
4.1216 11.4487 33.4913
2.9768 4.38611 13.1011
2.57131 11.5334 45.3502
4.69809 9.34992 18.4682
2.87709 10.7601 32.1953
3.18116 9.79279 23.9107
1.86065 7.83027 41.9753
5.08206 16.9038 44.6813
2.88162 5.75707 34.6249
5.99224 19.0952 56.3585
5.53216 13.4513 27.6368
2.67272 7.24972 26.1977
3.16912 8.86776 22.0671
2.02917 8.77076 46.355
5.79046 14.8895 26.7304
2.29099 11.3829 45.1883
4.15978 9.89173 25.689
2.82995 6.09843 18.6336
3.65933 16.3841 39.9331
3.09557 8.14217 21.2728
2.64466 12.4653 46.6866
4.61122 13.7853 44.3391
3.81687 5.92404 18.8383
3.95717 19.349 76.173
8.53714 19.3772 28.0333
1.86331 10.5127 45.4817
4.31496 13.0364 36.9529
2.92679 6.1553 22.582
2.96325 9.60098 30.4258
3.58305 10.4634 37.2487
5.24069 16.8244 45.3324
3.76385 9.56981 27.3481
2.27263 6.98952 34.2945
4.35891 14.5988 50.7114
5.57751 13.6277 28.7047
3.27577 11.5375 32.0007
2.33584 5.10332 19.1212
2.93084 12.7843 44.5228
5.04689 16.5205 30.5026
1.78083 7.97223 34.4073
3.60851 10.5515 25.9311
3.55965 20.6686 78.7978
6.39815 10.4252 34.5887
5.09129 18.2935 35.6595
1.58066 5.89218 31.3938
3.2724 10.6322 39.7823
4.01015 9.93581 22.0304
2.67341 10.0265 28.4169
2.3079 8.66078 23.8058
2.12583 9.50258 37.7778
2.96839 6.91324 34.3793
4.24827 12.2297 34.6907
3.79873 11.1615 35.5454
3.6222 11.8664 46.419
6.01506 17.6985 36.1781
2.84091 10.471 37.4762
3.18092 10.0413 31.2254
2.77754 9.8135 35.1626
2.78968 10.4629 33.3116
2.57467 7.92977 34.0149
3.90762 11.5503 35.6817
3.93644 10.5678 22.9378
2.30138 10.7589 34.271
2.07135 4.28992 27.8911
3.3309 8.55508 25.4686
2.91398 9.07494 26.3714
2.94353 13.2968 43.7989
3.40734 7.93894 28.4549
2.60573 9.58877 37.4098
3.52115 10.2287 51.2202
6.03411 14.9629 24.9432
1.67738 6.52656 24.5316
2.99735 14.7941 63.1961
6.03999 15.5472 35.9469
2.85937 9.97956 35.8035
3.20656 9.96133 33.991
2.22479 5.91139 44.3204
5.52457 12.9406 28.6594
3.2267 13.6424 41.7066
4.04307 15.9543 53.1085
4.26371 7.8327 16.3887
2.12753 10.0383 40.9247
5.36195 19.9182 46.2878
2.54509 9.64699 27.1183
1.61912 6.80415 37.8751
4.10134 10.8439 26.1789
1.72124 7.69357 35.3777
2.92149 6.82398 22.43
2.93297 10.3946 28.6969
2.83753 12.2892 37.0539
2.32235 4.23312 13.7746
1.81015 10.2473 42.9256
3.40491 9.39815 32.1957
2.80617 9.97324 41.8851
4.63017 18.3464 56.4092
3.90804 11.1924 51.4741
4.54296 10.4712 17.4044
2.05637 10.9723 35.4075
2.38698 7.42424 27.6612
2.18248 6.25686 23.2322
1.93876 6.50478 37.5459
4.54671 20.3896 60.746
4.75142 14.5928 38.3329
2.41096 4.59166 18.9706
1.86857 8.17336 36.5428
3.28216 10.7313 49.5232
4.34697 6.5425 23.3135
3.15733 10.0843 21.5839
2.40851 11.087 36.1897
3.01888 10.1977 37.618
3.81537 12.2724 34.4893
2.81813 14.2456 44.2565
2.5542 4.48675 24.3925
3.03181 10.3736 33.5599
2.69221 9.51596 26.8197
2.21588 8.78667 37.0178
2.9956 9.57612 55.694
5.3779 12.1314 28.0623
2.99157 13.8144 42.1682
3.6936 14.4837 57.7504
4.49337 12.5641 46.2554
3.20619 6.653 30.8038
3.81293 14.826 37.7934
2.88447 9.7739 26.0178
1.88293 5.59445 24.1821
2.45628 9.26979 35.959
3.33769 8.98522 36.0621
3.5377 8.71154 23.6844
2.41405 7.1059 13.252
1.5835 9.261 35.0056
3.17452 14.4831 45.1491
3.32011 10.4974 46.6709
4.03344 12.7634 29.8117
2.23712 7.61819 37.4568
3.06674 7.09108 21.3086
2.64235 10.0364 29.0249
2.56098 12.0523 39.5789
3.02296 7.23373 27.0646
2.64311 9.83876 27.6257
2.96335 17.6902 74.4034
4.98326 8.88254 23.001
2.51724 11.6609 33.3076
2.55252 10.8723 54.429
4.08425 9.05115 19.7326
1.79362 8.76247 50.8291
5.46606 13.9367 18.4048
1.7622 14.4262 42.7796
1.9056 6.58308 35.7638
2.53785 6.35651 28.2997
2.54434 10.1584 43.057
4.58525 18.4574 51.7445
3.68207 13.7743 44.8373
3.20346 9.05055 38.3925
3.56242 13.3111 61.6571
5.23328 15.5178 34.9334
2.65147 15.7893 59.0577
3.24171 7.01034 43.0763
4.26578 12.4554 38.3232
2.51118 7.59249 34.2641
3.08345 11.2754 44.728
3.44 8.8486 30.7938
2.63174 6.78797 35.1115
3.59098 10.626 30.3737
2.60619 7.99413 19.1767
1.85358 8.062 35.1262
3.0028 9.91063 34.0765
2.77143 6.9564 14.9655
1.35396 8.1167 41.3548
3.70726 14.5246 45.7316
3.35372 8.43529 29.2598
3.11107 15.1832 48.619
2.78895 5.32938 19.0519
2.00555 8.85873 38.5971
3.44914 17.6452 63.0765
4.42612 15.548 51.5144
3.69986 9.81907 29.148
2.30946 6.96452 25.6331
2.10383 9.53559 37.8776
3.16898 9.07143 25.3853
2.63616 16.6752 53.5451
2.78367 6.93923 40.129
3.51422 10.7001 41.1996
2.94558 5.24524 18.1967
1.61953 4.6727 34.4902
3.79321 12.3123 23.6851
1.4654 3.20274 25.2885
3.37485 17.2036 51.7334
3.55857 8.58985 23.2509
1.99336 10.1973 50.946
3.88891 9.40672 24.8178
2.29249 12.0988 49.753
3.40701 10.1158 35.0153
2.65979 6.95695 18.2986
2.00949 14.9732 54.372
3.65919 10.1418 37.2374
3.06418 14.5413 60.3086
4.28038 12.6789 38.1559
2.15143 5.75389 39.5841
3.91935 17.4027 67.7092
4.87902 11.3437 17.0076
1.31758 8.1574 48.9229
4.29295 14.8804 34.3425
2.34423 8.16536 27.0775
2.20223 8.70755 23.3608
1.65458 9.73157 38.7299
2.48635 10.4139 42.4382
2.55764 7.21379 28.991
2.35103 8.65272 36.0815
2.68579 10.0459 43.7667
2.94005 8.72857 29.5412
2.58476 10.8325 31.8652
2.22708 8.02883 26.1684
2.12662 9.78115 25.1002
1.75613 11.5855 58.4516
3.71254 7.32067 44.2747
3.86666 8.85347 23.0825
2.32304 11.9812 32.0069
2.22352 8.81138 25.2208
1.57712 10.7125 58.5627
4.05785 8.94847 17.5427
1.00558 5.77409 35.4676
2.4379 8.15386 31.4143
2.11988 6.93119 25.6714
1.92837 3.15281 19.8418
2.2227 13.2809 37.7206
2.38182 7.07499 26.9843
2.19953 13.5794 61.0374
4.53943 13.3857 45.0959
3.46977 14.4408 33.6109
2.16775 5.14562 21.4938
2.09848 12.1159 28.6185
1.39515 10.8676 73.4012
5.24526 8.87661 33.1284
2.61578 7.78656 21.3092
1.82488 5.69325 18.2613
1.50258 7.47947 26.9265
2.41517 11.6707 53.0559
3.70785 9.73502 29.9011
2.30053 7.34334 20.3275
1.6924 9.88874 36.7294
1.99146 5.51499 27.8969
2.15365 8.27306 28.8346
2.187 7.77263 15.5539
1.0288 6.53746 26.2343
1.93096 8.02622 18.4493
1.11497 6.17789 33.5626
2.36612 7.89349 22.1889
1.35263 7.22921 34.1638
2.51835 8.52194 35.1529
2.50872 6.85003 26.6659
1.76606 6.87226 39.7888
3.27366 10.191 23.1659
1.46823 4.72064 24.6016
2.18545 10.1255 28.5145
1.77986 6.90061 35.3248
2.31477 7.69659 28.7667
2.2134 9.25751 29.2114
2.02189 8.85608 28.1202
1.68254 6.89858 33.3423
2.06462 4.09593 27.705
2.16673 7.70459 26.6516
1.65673 6.48809 49.2449
4.16487 14.4774 23.3769
1.47095 11.3733 49.1052
2.98225 8.30892 36.8412
2.80244 11.0335 38.5194
2.63462 6.65027 24.3156
1.88963 6.4013 21.5369
1.62992 6.7945 25.944
1.61214 7.92042 69.6318
5.72035 17.2496 42.9773
2.5087 8.21857 37.3857
2.64048 8.96512 50.9676
3.62282 10.8583 25.5665
2.25728 11.8077 33.0428
2.43569 11.1189 46.3047
3.05985 10.3005 38.2794
2.61025 7.61697 34.9937
3.24139 15.0155 30.02
1.51035 7.45187 51.4326
3.15209 11.8941 29.1142
2.12236 8.67264 24.1229
1.5543 9.31541 45.0962
3.07181 14.4661 38.0433
1.83253 8.83393 68.7612
4.90166 16.053 30.9034
1.89805 10.5257 52.0139
3.72064 12.5698 55.4638
3.9153 11.7662 29.9408
1.89452 5.27098 33.7721
2.39168 7.68344 35.7706
2.76254 7.60636 20.8847
2.02703 10.556 33.0877
2.24712 10.7612 59.5812
3.7558 11.955 49.4208
3.65924 16.947 30.0097
1.43661 5.44715 25.3444
1.25341 5.25761 46.396
3.36422 8.135 34.9513
2.39936 8.79464 28.8975
2.18507 8.1599 50.3967
3.6226 12.2087 40.0369
2.94325 12.8028 32.2748
1.87258 6.19486 22.2553
1.41608 4.23361 25.1394
1.98373 8.77582 24.6026
1.48809 7.43979 48.4571
3.25042 12.7349 37.5981
2.52621 7.17165 29.136
2.1569 9.98622 34.2744
2.13804 5.34355 25.0238
2.0508 10.006 24.233
1.11422 5.3562 32.3081
2.13872 6.29518 51.8968
3.62224 15.3297 30.8377
1.84723 9.36735 46.82
3.48438 16.232 53.449
3.23984 10.9938 42.4655
2.40701 5.22289 42.5671
2.90113 6.43013 27.9641
2.42954 9.77827 27.5604
2.32583 13.7103 34.2299
2.15735 7.28133 28.173
2.08383 9.01705 28.5667
1.85771 7.92959 41.4548
2.82742 13.3812 46.7785
2.79101 6.76248 29.3463
1.74099 7.37277 35.6558
2.52141 11.1324 44.08
2.98281 5.83287 17.1907
1.39991 7.82989 32.8154
2.20011 11.2111 31.9739
1.92053 5.17799 36.1151
2.50584 5.77776 23.0999
2.02071 12.2006 31.8769
1.78535 7.15155 29.4043
2.13839 7.75963 21.2827
1.20894 9.17206 39.946
2.61392 6.55559 26.2421
1.49338 5.60345 17.2209
1.15081 7.94963 34.5413
2.41423 7.54862 22.2779
1.7444 13.6498 60.2015
3.60005 7.12089 40.9175
2.79849 8.56138 20.1332
1.24857 8.39863 20.7393
1.39776 11.7103 77.5057
4.668 12.6567 30.1905
1.80853 3.45722 29.3677
2.2851 8.06699 21.3914
1.69344 5.33421 26.8174
2.21182 13.5144 40.0771
2.19166 8.51245 37.3943
2.37489 5.91173 21.5449
1.49626 7.82695 45.9899
3.40326 10.3813 18.1035
1.00754 4.99973 18.9519
1.27844 8.35944 44.9775
3.2061 10.9752 29.1316
1.89752 13.2687 48.0109
2.68148 3.90588 29.987
1.93265 8.27831 23.955
1.59558 8.26183 20.5621
1.19901 2.99596 20.6545
1.52792 7.87469 37.5113
2.49509 7.31335 20.7352
1.27524 5.10437 28.2803
1.82472 5.85902 15.7483
1.04457 5.58467 23.985
1.78481 10.2548 36.1948
2.35895 7.56389 27.5206
1.7829 14.0638 57.6215
3.28444 5.78436 34.7037
2.58134 13.7894 62.5063
4.15912 7.70112 20.143
1.48675 6.83143 24.091
1.58523 7.14011 34.116
2.33957 7.2704 32.1626
2.23113 9.68404 23.7566
1.37448 5.60148 41.1998
2.8225 8.19192 23.0443
1.32455 7.48969 22.5335
1.70919 7.53797 18.8353
1.29703 14.3048 61.7574
3.34665 6.67607 22.3638
1.36205 4.14535 38.9436
2.38779 6.52048 28.165
2.17113 8.41626 15.7389
1.00686 5.08849 28.1182
2.13003 8.56989 40.3588
2.52466 11.2724 34.6299
2.24565 6.73689 24.8862
1.80526 8.7649 37.6818
2.28395 9.71587 34.3876
2.05551 6.74975 25.095
1.54549 6.97967 50.8201
3.1518 10.4575 28.8783
2.07173 8.71103 17.8036
1.15113 2.19757 17.1837
1.10904 7.33598 37.4676
2.73229 14.028 56.1306
3.27817 8.99904 49.5207
3.3345 10.803 26.1368
1.52362 6.22249 18.5922
1.34999 4.86862 24.5504
1.66258 9.29438 31.758
1.91013 6.50081 18.8913
1.31318 9.95868 39.869
2.43073 3.46598 12.382
0.739174 5.98349 34.8525
2.31048 9.10934 24.0251
1.44146 3.42074 15.0846
0.877255 6.40359 46.5769
2.75101 9.07146 31.0378
2.10278 12.0116 57.4651
3.94006 11.7464 34.2817
1.96511 12.5677 52.2315
3.20846 8.31963 44.0028
2.90557 9.79327 23.906
1.7278 12.0559 47.1983
3.00071 7.85192 30.066
2.05761 6.29652 21.9604
1.30355 9.52683 52.3469
3.3538 11.7653 36.4615
2.20975 4.78049 17.1003
0.976793 5.41535 33.0202
2.00105 6.14742 46.7098
3.2611 18.3937 28.5678
1.71186 7.2464 32.8289
1.93894 9.77821 36.4914
2.30578 5.03366 25.9627
1.78061 4.78287 33.1535
2.29924 6.05638 26.2197
1.80242 8.64642 37.128
2.44626 8.3272 30.3297
1.93107 6.99768 32.1522
2.01531 5.27326 42.5849
2.66169 11.1942 34.8583
2.18523 6.27979 32.0019
2.02572 8.15362 35.7025
2.3902 16.6112 38.3043
2.26256 7.17496 40.8761
2.73842 6.63921 27.8798
1.94714 10.1858 41.4247
2.41084 9.7382 31.9053
2.13328 12.4502 70.9928
4.31608 11.0295 22.0053
1.24033 7.96007 21.4497
1.3809 10.6454 40.9407
2.66579 3.23334 32.8353
2.20594 9.69563 32.1201
1.98517 8.81069 23.2341
1.25391 4.90035 19.7422
1.3525 9.14968 35.1634
2.38689 5.39314 32.5565
2.26548 7.96326 33.2712
1.98388 7.24755 34.1804
2.29133 5.58484 22.8529
1.62516 11.1763 56.4335
3.4353 10.4118 27.4271
1.55401 10.878 43.9861
2.85925 8.70888 29.9853
1.71025 6.06944 38.6183
2.34805 8.75372 39.7635
2.31766 12.1401 40.1865
2.61992 9.78589 41.576
2.6865 8.75136 31.1135
2.00629 10.8728 26.1819
1.84812 6.26107 38.7294
2.71826 7.6094 57.5292
3.63943 11.0307 21.8229
1.37723 5.31505 30.0443
1.65683 11.9622 33.7036
2.05227 11.8453 53.3627
3.6507 9.57294 27.6618
1.58557 0 0