# pn-170911/RbIIR-53-USN3-1280-1959.psd
# Power spectrum* (dif=0,1,2) (really just |FT|^2)
# NOTE: only the first half! (symmetric)
# weeks: 1280-1959
# 3085 clock-days, 81 excluded
# PSD: 1441
672.352 0.0738236 0.023362
26265.7 0.585054 0.0130111
102032 2.02839 0.0130189
17418.7 0.576959 0.0129878
46737.6 3.52731 0.0136578
5767.07 0.518239 0.0131796
4878.09 0.649886 0.0136719
3105.41 0.542213 0.0135823
3719.8 0.926845 0.0139047
1917.12 0.558972 0.0134826
1748.48 0.653897 0.0137359
1459.85 0.623219 0.0139868
1374.09 0.733227 0.0136166
1078.84 0.663943 0.0145619
999.177 0.73447 0.0136861
879.036 0.741563 0.014167
870.606 0.878791 0.014287
714.376 0.79735 0.0150772
701.9 0.903131 0.0144907
648.087 0.939612 0.0147224
650.559 1.01877 0.0150445
586.446 1.0436 0.0155351
584.353 1.15967 0.0168305
571.995 1.23557 0.0164751
573.417 1.37145 0.017353
519.868 1.36332 0.0177495
528.008 1.49437 0.0176951
520.513 1.60015 0.0192817
507.99 1.68697 0.0195692
496.639 1.78884 0.020496
504.149 1.95913 0.0214776
491.214 2.06074 0.0227607
492.579 2.21986 0.0248856
493.387 2.36997 0.0252693
458.146 2.3247 0.0263761
465.873 2.51364 0.028225
484.743 2.80173 0.0312815
477.773 2.93176 0.0325498
456.666 2.93091 0.0339385
450.856 3.08402 0.0356388
457.335 3.27408 0.0375524
455.697 3.46537 0.0417162
441.801 3.51311 0.0422249
461.298 3.84223 0.0464369
461.284 4.05779 0.0506119
433.999 3.97987 0.0511324
440.612 4.25559 0.0576632
433.604 4.35115 0.0596795
422.98 4.41355 0.0631371
443.462 4.80445 0.0692661
417.945 4.74668 0.0700815
428.997 5.00282 0.076164
424.933 5.23445 0.0819357
436.002 5.6379 0.0898762
427.063 5.68692 0.092548
417.375 5.7903 0.096485
405.528 5.82325 0.10054
398.074 5.93947 0.107213
386.951 5.99721 0.109586
385.62 6.15761 0.115408
369.545 6.12971 0.119836
382.681 6.56944 0.132163
384.326 6.78592 0.135813
356.213 6.55362 0.138308
354.868 6.68101 0.142625
359.263 7.01037 0.154853
347.34 6.93441 0.156929
353.407 7.34577 0.173123
348.971 7.48861 0.176073
346.714 7.61504 0.189031
346.593 7.80525 0.193655
333.873 7.80795 0.201291
336.796 8.04417 0.21309
327.463 8.06769 0.221089
315.807 7.99398 0.223447
315.076 8.16256 0.231538
323.63 8.64432 0.252959
306.567 8.41899 0.249504
317.523 8.88243 0.271604
302.064 8.75519 0.27696
304.165 9.00603 0.28737
289.295 8.80257 0.288604
301.749 9.38146 0.31367
287.453 9.21843 0.314375
273.334 8.8548 0.309841
277.219 9.32094 0.332997
276.646 9.39574 0.346102
277.933 9.82089 0.365325
265.316 9.50473 0.363839
267.771 9.77561 0.382672
267.185 10.115 0.403849
260.65 10.0044 0.406607
246.925 9.7415 0.408619
242.066 9.68368 0.410177
244.998 9.98805 0.430578
250.831 10.5765 0.461261
286.004 12.2933 0.5521
235.725 10.2489 0.468695
230.173 10.2977 0.483417
222.84 10.1118 0.479735
230.833 10.7342 0.522265
231.084 10.9626 0.539354
237.212 11.4949 0.581282
227.177 11.2154 0.578385
218.733 10.9386 0.573626
221.291 11.3044 0.60402
207.079 10.7952 0.58913
201.197 10.6563 0.591102
209.297 11.291 0.641097
209.408 11.5461 0.665059
206.865 11.6697 0.685699
198.998 11.4232 0.684224
197.165 11.5263 0.700047
196.867 11.5736 0.714211
198.248 12.018 0.757904
194.505 11.8997 0.763931
192.678 12.1333 0.783276
182.737 11.6389 0.771695
190.49 12.3883 0.837604
186.959 12.2712 0.83293
184.089 12.3784 0.85706
173.005 11.7654 0.83322
180.357 12.4977 0.895912
176.818 12.5222 0.910715
183.89 13.034 0.95738
175.728 12.7973 0.961379
168.556 12.4655 0.954758
166.568 12.4152 0.960454
167.755 12.7004 0.998915
161.759 12.5159 0.999746
167.706 13.2366 1.07394
165.164 13.1813 1.08966
162.48 13.1414 1.09606
165.813 13.6142 1.14554
161.26 13.4491 1.15742
157.315 13.351 1.16523
156.808 13.442 1.18574
152.25 13.1715 1.18025
150.497 13.342 1.22617
148.429 13.2763 1.226
154.288 14.1462 1.32246
149.129 13.7173 1.30493
142.378 13.3092 1.28604
143.138 13.5517 1.31771
145.043 13.9604 1.37737
147.432 14.4447 1.45265
141.762 14.1261 1.44168
144.92 14.5489 1.4902
143.758 14.7149 1.53648
141.335 14.4657 1.52228
133.104 14.0617 1.51314
136.561 14.4999 1.58513
134.966 14.4647 1.59727
134.361 14.5517 1.62881
135.67 14.9872 1.69051
132.045 14.6712 1.67186
127.892 14.4749 1.67645
132.9 15.2734 1.7878
133.754 15.4825 1.83617
124.639 14.6894 1.76729
123.9 14.6574 1.77449
124.283 14.9589 1.85019
122.708 14.8284 1.84884
123.325 15.2152 1.92778
124.124 15.3691 1.96276
121.123 15.2292 1.96554
119.87 15.3385 2.01197
127.202 16.3976 2.14749
117.795 15.3341 2.04784
117.641 15.6796 2.12546
117.599 15.8084 2.16619
118.242 15.9396 2.19524
113.639 15.5722 2.18977
112.219 15.5161 2.19945
110.679 15.6184 2.2413
111.416 15.7858 2.28135
111.904 16.128 2.36334
107.586 15.5616 2.30352
112.134 16.502 2.46031
108.196 16.0769 2.43527
103.894 15.5842 2.38017
106.015 16.1443 2.51756
107.255 16.4523 2.56849
110.122 17.0569 2.70667
106.697 16.7141 2.6718
106.465 16.9069 2.74588
103.312 16.5479 2.69317
106.965 17.4035 2.88077
102.103 16.7256 2.79643
97.3555 16.0815 2.70554
98.6153 16.369 2.77936
98.6038 16.764 2.91575
114.807 19.467 3.3488
97.9327 16.8516 2.9452
97.5912 16.9784 3.01444
98.1039 17.3132 3.10369
99.0015 17.677 3.20702
96.7706 17.1832 3.13967
95.8118 17.311 3.18635
96.286 17.7192 3.3041
95.5741 17.7672 3.35125
91.6454 17.0646 3.23539
92.8091 17.5665 3.39326
94.2304 17.9712 3.49687
92.3698 17.6951 3.46148
90.7525 17.7009 3.52641
92.7023 17.9781 3.57026
88.2283 17.5184 3.55481
91.6275 18.2248 3.67352
91.8556 18.636 3.84157
89.1617 18.1864 3.76791
89.0268 18.2773 3.79796
83.8332 17.488 3.70515
86.4201 18.1486 3.87977
84.9407 17.808 3.81531
86.6603 18.5126 3.99471
86.4807 18.6522 4.08147
88.3022 19.1052 4.2073
84.5123 18.5714 4.14367
85.7392 18.9157 4.24019
83.4756 18.6468 4.25111
83.6092 18.8364 4.36235
84.834 19.1105 4.38312
81.0182 18.5693 4.34016
83.3575 19.0735 4.4492
79.6748 18.6211 4.45099
83.8741 19.7928 4.75669
79.9274 18.8743 4.54809
82.557 19.6001 4.71106
81.5369 19.5861 4.80757
79.9109 19.4574 4.78217
77.2835 18.9831 4.7362
74.8006 18.5455 4.68796
79.6044 19.9668 5.08583
78.3139 19.7223 5.03285
75.5633 19.2894 4.98463
76.8682 19.6689 5.06126
73.7759 19.1541 5.05466
76.1532 19.7931 5.22556
76.3812 20.1614 5.41507
76.6077 20.2498 5.44059
75.5148 20.0375 5.39236
73.6401 19.8769 5.4196
73.8652 19.9666 5.4943
71.9576 19.992 5.63394
73.3856 20.1359 5.5871
71.8008 20.0777 5.70692
74.8301 20.7905 5.86433
72.5074 20.5664 5.87344
71.7502 20.523 5.92558
70.992 20.4263 5.94538
69.0724 20.0254 5.88955
68.6457 20.0889 5.95987
68.9644 20.272 6.03892
69.109 20.3229 6.07487
67.1865 20.0746 6.106
68.3474 20.5691 6.23908
65.7467 19.9014 6.11574
68.0084 20.8116 6.45422
66.0477 20.3172 6.35616
66.7465 20.5595 6.47599
66.7549 20.7188 6.53238
65.0539 20.2816 6.46877
68.4863 21.7356 6.95606
65.1626 20.7723 6.67216
66.5094 21.4629 7.01806
65.0399 21.0739 6.95131
62.2775 20.221 6.71163
65.691 21.5491 7.16696
64.4553 21.3387 7.14637
65.747 21.6642 7.25705
63.2908 21.2007 7.22388
64.6275 21.8957 7.50058
61.3973 20.817 7.18878
63.743 21.7294 7.48986
63.8635 21.8794 7.60791
62.0948 21.702 7.70463
59.8867 20.883 7.40635
61.9574 21.8457 7.80545
57.4769 20.422 7.38359
60.8348 21.7286 7.87602
60.619 21.8893 8.04576
61.6086 22.2662 8.13248
58.3241 21.2445 7.88619
59.5214 21.8663 8.13622
57.4699 21.1983 7.96809
59.193 22.205 8.41989
59.5657 22.4803 8.66712
69.9261 26.2473 9.85774
59.1739 22.6816 8.79058
57.2541 21.8081 8.47712
57.4035 22.0526 8.56933
57.0606 22.235 8.77118
59.2148 22.9648 9.02901
54.9566 21.5887 8.62628
55.8285 22.0926 8.88022
54.6034 21.6458 8.75919
54.5579 21.6467 8.73
56.5694 22.9037 9.3833
55.7991 22.5432 9.21817
54.043 22.1978 9.23334
53.9751 22.2551 9.31605
53.6302 22.1984 9.31277
53.5808 22.2146 9.33405
54.1379 22.8644 9.75048
53.0447 22.1111 9.4133
51.3415 21.8186 9.3839
53.0758 22.7491 9.83284
52.4886 22.483 9.77552
52.8575 23.0061 10.1359
51.0686 22.4861 10.0102
52.7254 22.9473 10.1229
52.4586 23.1845 10.3388
48.9441 21.7629 9.80258
49.4021 22.0649 10.0706
52.104 23.1488 10.4349
48.7934 22.2062 10.2479
50.0877 22.7267 10.4302
49.8106 22.7842 10.5667
49.9215 22.7406 10.5612
50.1702 23.4206 11.0204
49.239 22.7473 10.6723
48.5334 22.751 10.8514
50.7392 23.9423 11.4318
49.4868 23.4593 11.2797
48.7262 23.0943 11.1184
46.5866 22.378 10.9243
46.8629 22.521 10.9784
48.6537 23.547 11.4598
47.6292 23.4741 11.6067
47.1956 23.0426 11.3475
46.3321 23.1639 11.6967
47.0233 23.3433 11.7035
47.9017 24.0005 12.1478
46.6015 23.1986 11.7456
46.5113 23.4535 11.9506
45.8476 23.4631 12.0978
47.0822 24.2851 12.6048
45.1861 23.1631 12.1
44.212 22.5973 11.7594
44.133 23.1959 12.3373
46.4303 24.2565 12.8038
44.8597 23.4128 12.409
44.6181 23.6654 12.6121
43.9075 23.4879 12.6486
44.7012 24.0275 13.0041
43.6252 23.5755 12.8593
42.5912 22.8903 12.4688
42.746 23.4232 12.9746
43.6801 23.8726 13.1992
43.03 23.6892 13.2296
42.7361 23.6852 13.3045
42.75 23.6361 13.2241
42.4394 23.9215 13.6038
43.4874 24.2702 13.7695
42.9574 24.1507 13.7781
42.3256 24.2366 14.0118
41.9265 23.6749 13.6245
41.85 23.9246 13.8904
41.1621 23.529 13.6761
42.063 24.5348 14.3885
40.7991 23.6188 13.9265
40.9846 24.1565 14.4042
41.1334 24.0036 14.1637
40.5119 24.0414 14.4406
39.2211 23.4048 14.297
39.387 23.2792 13.9869
40.8961 24.4613 14.7407
39.9412 24.0215 14.5203
39.0925 23.989 14.8166
38.9195 24.0262 14.9774
39.2803 24.0491 14.9521
39.1464 24.2061 15.2159
39.4906 24.3028 15.1999
39.1962 24.1904 15.1168
37.87 23.9402 15.3152
38.8257 24.3918 15.553
38.6703 24.273 15.4618
37.8096 24.059 15.5188
38.612 24.6913 15.8733
36.953 23.7796 15.5563
37.2089 24.0393 15.7473
37.5918 24.1615 15.7776
36.0426 23.4823 15.7811
45.712 29.82 19.1424
35.7786 23.6596 15.7735
37.1407 24.8195 16.6861
35.9595 23.8106 16.0081
36.4401 24.2351 16.2019
34.8929 23.6556 16.2252
35.5407 24.2669 16.7279
36.2347 24.4391 16.7397
35.4789 23.9856 16.4232
35.9529 24.6083 16.9716
35.0112 24.0616 16.703
35.6525 24.6917 17.2602
34.8467 24.2507 17.0128
34.6045 24.1546 17.0845
33.8689 23.6484 16.8043
35.32 24.8498 17.6975
33.6923 23.7407 16.9637
34.1826 24.2062 17.3398
33.9347 24.5673 17.9454
34.2795 24.4257 17.6867
34.7416 24.9199 18.1162
33.3661 24.094 17.656
33.378 24.1024 17.6942
33.7639 24.6013 18.1004
34.0718 25.1129 18.6005
33.2417 24.3329 18.0718
32.434 23.944 17.8286
31.9453 23.9636 18.1016
32.7831 24.5886 18.6507
31.6587 23.6853 18.0655
33.3716 25.3684 19.4354
33.4515 25.1239 19.1176
32.6621 24.6123 18.8235
32.6384 24.8368 18.9772
30.9671 23.988 18.8025
32.653 25.1445 19.4841
30.2981 23.5746 18.5921
31.3305 24.232 19.0151
30.7334 24.1363 19.1596
30.6146 23.817 18.7402
30.8721 24.5326 19.6121
30.1745 23.7645 18.8925
29.6187 23.861 19.5048
30.3635 24.1964 19.5026
29.5133 23.6736 19.2949
30.1778 24.4482 20.0526
29.6968 23.7375 19.4748
30.0569 24.2526 19.7874
29.5853 24.0908 19.7744
29.6855 24.4827 20.2613
28.7633 23.8028 20.0248
29.9709 24.535 20.2598
29.2477 24.4751 20.6444
28.8365 24.0424 20.3814
28.1009 23.2265 19.6068
28.6639 24.0912 20.5492
29.4511 24.789 20.9596
28.8266 24.498 21.0828
28.6538 24.4073 21.0206
28.7602 24.7056 21.3055
27.5833 23.7818 20.8166
27.8954 23.754 20.5628
27.5763 23.8925 20.9819
27.7433 24.1595 21.3281
27.8727 24.1735 21.2443
27.4799 24.0892 21.4536
28.1959 24.6128 21.6319
27.9649 24.7226 22.0677
27.5813 24.2055 21.5187
26.8587 24.1796 21.944
26.3558 23.303 20.8372
26.4291 24.0032 21.8943
27.0861 24.4974 22.3569
27.1674 24.4674 22.2334
26.9155 24.3749 22.2668
26.9984 24.7798 22.9183
25.6586 23.2081 21.397
25.7741 23.8607 22.1527
25.2553 23.4184 22.0357
26.7986 25.073 23.5432
25.7691 23.8287 22.4528
25.8718 24.1967 23.0072
26.4765 24.5474 23.0338
25.5275 24.1189 23.0781
25.5963 24.3082 23.3177
25.9461 24.5297 23.3797
25.2484 23.9686 22.9487
24.9552 23.9156 23.1545
24.3926 23.5892 23.2354
24.8247 23.8921 23.4182
25.4076 24.4784 23.8443
25.2795 24.6889 24.3044
24.5371 23.7928 23.5122
24.9256 24.1409 23.7536
24.6313 24.1569 24.0262
25.3327 25.2661 25.8357
29.6119 28.8607 27.8393
24.6415 24.4559 24.5699
24.1011 24.1422 24.7253
24.9869 24.5661 24.4022
23.5993 23.8724 24.4428
23.7677 24.0188 24.4933
23.5918 23.8286 24.4465
23.6144 23.947 24.8272
24.1159 24.4011 25.0188
23.56 24.0802 24.8992
23.5754 24.0898 24.9154
22.8993 23.6385 24.8525
23.7952 24.5236 25.5135
23.5337 24.5248 25.8273
23.147 24.0533 25.3816
23.6196 24.6659 26.0139
23.1414 24.4814 26.0334
22.3953 23.4547 24.9841
22.4016 23.807 25.6345
22.9899 24.295 25.9133
22.575 24.0041 25.7777
22.622 24.4211 26.4482
21.6717 23.1301 25.1682
22.0973 23.9659 26.3443
22.8156 24.8102 27.1916
22.1499 23.5205 25.54
21.7569 23.5229 25.8024
21.7432 23.6878 26.1402
22.0366 24.0695 26.4537
21.7556 24.1703 27.0738
21.6827 23.9072 26.8551
21.999 24.2838 27.1806
21.0013 23.022 25.8137
21.4002 23.6624 26.5461
21.3395 23.8265 26.8828
21.5429 23.8452 26.5379
20.7721 23.632 26.7282
20.7719 23.7174 27.2951
20.7681 23.4533 26.9432
20.9684 23.6931 26.9301
19.9609 23.0365 26.9196
20.9271 24.2144 28.176
20.1573 23.1923 27.1608
20.6647 23.9562 27.9815
20.2854 23.3416 27.4031
20.103 23.2967 27.3252
20.1899 23.4759 27.5995
20.1516 23.7826 28.2607
19.4952 22.665 27.1096
20.2248 23.9391 28.6267
20.8189 24.1425 28.0593
19.2119 23.2552 28.2449
19.678 23.7147 29.0727
20.0616 23.6891 28.5057
19.6861 23.2025 27.9676
19.8021 23.9221 29.0562
19.2698 22.8957 27.8198
19.0248 23.1129 28.2601
19.0816 23.2897 28.7821
19.376 23.678 29.0998
19.134 23.4873 29.1637
19.3328 23.8514 29.7313
19.7628 24.174 29.9582
18.6094 22.7211 28.218
18.3494 22.8532 28.8108
18.8103 23.1795 29.0744
19.3816 24.1036 29.9727
18.4441 23.1783 29.516
18.6637 23.4094 29.7205
18.567 23.3715 29.6018
18.1429 23.1382 30.0102
18.3456 22.9529 29.4272
18.4204 23.4484 30.2192
18.5667 23.6595 30.7981
18.562 23.1579 29.4016
18.2142 23.332 30.1619
18.3513 23.7823 30.8448
18.0858 23.4228 30.7911
18.1982 23.1752 30.0333
18.274 23.7601 31.0329
17.4493 22.6903 30.2084
17.9104 23.0413 30.1009
17.2505 22.4563 29.7675
17.6087 23.296 30.9054
17.0141 22.6623 30.6356
17.3781 22.9871 31.1643
17.8202 23.2709 30.7664
17.2282 22.9757 30.9024
17.7578 23.761 31.8881
17.6202 23.719 32.2445
17.4492 23.2049 31.4698
17.3061 23.1503 31.3474
16.9237 23.0097 31.7707
17.1931 23.5189 32.3809
17.127 23.0765 32.0043
17.3453 23.711 33.819
21.1728 28.0736 36.3672
17.0652 23.525 32.2835
16.8215 23.3652 32.4671
16.7761 23.3296 32.4261
16.1915 22.2755 31.3017
16.7521 23.5867 32.8679
15.8894 21.8328 30.5709
16.4081 22.9619 31.9709
15.6583 22.3502 32.3095
16.1645 22.8939 32.7393
16.1677 22.9298 33.3118
16.4253 22.7587 31.9259
15.9461 22.7721 32.7691
16.0529 22.8187 33.0095
16.2082 22.6917 32.4646
16.4331 23.3536 32.9908
15.7508 23.0515 33.93
15.5397 22.2235 32.7825
16.0937 23.0689 33.6854
15.751 22.222 31.9022
15.2671 22.1998 32.4973
15.4673 22.4594 33.0284
15.2591 22.3024 32.842
15.1509 22.1475 32.8694
15.7703 23.6213 35.145
15.2939 22.4676 33.806
15.6246 22.8016 33.937
14.9062 21.6895 32.643
15.1144 22.3392 33.7196
15.7 23.3634 35.2822
15.2549 22.3081 33.0853
14.7479 22.0258 33.215
14.7 22.1019 33.6804
14.6652 22.0423 33.7168
14.7361 21.9711 33.527
15.029 22.4719 34.0043
14.8087 22.6698 35.1627
14.9819 22.235 33.3759
14.4595 22.3348 34.7879
14.5743 22.1002 33.8904
14.4517 21.9254 33.2247
13.7852 21.649 34.4297
14.3381 21.9824 34.083
14.0589 21.8097 34.454
14.4621 22.1269 34.012
13.7694 21.6803 34.1638
13.6379 21.2149 34.0438
14.01 21.7723 34.5877
14.1233 22.116 34.872
13.8325 21.6815 34.6549
13.8446 21.7607 34.7628
13.8368 21.4943 33.8993
13.5742 21.5511 34.6406
13.8306 22.107 35.4288
13.5664 21.4704 34.5594
13.5684 21.5933 34.8836
13.3784 21.5871 35.4202
14.1924 22.9549 37.0851
13.4199 21.4175 35.4176
13.5257 21.1697 34.1942
13.3672 21.5723 34.8774
12.9906 21.2278 35.2763
13.361 21.4138 34.7282
13.3079 21.7062 35.3693
12.8624 21.2975 35.8159
13.2512 21.8009 36.2614
13.1634 21.5152 35.628
12.9786 21.5504 36.2226
12.9636 21.1528 35.1586
12.9041 21.5098 36.0375
12.6274 20.8767 35.2619
12.9406 21.245 35.3839
12.5763 20.8965 35.0333
12.4955 20.9213 35.5412
12.6441 21.167 35.4912
12.7673 21.6229 36.5996
12.5186 21.2846 36.6106
12.4354 20.863 35.7001
12.48 21.2126 36.8942
12.9319 21.7663 37.1415
12.7032 21.6838 37.021
12.1668 21.0093 36.6491
12.2239 20.7411 36.3183
12.1811 20.6083 35.708
12.3678 21.3393 36.8527
11.9399 20.5914 36.2586
12.2064 21.1977 37.3021
12.3407 21.123 36.9311
12.2117 20.7113 35.5923
11.699 20.5289 36.0052
11.7124 20.6971 36.5522
11.4579 20.1267 35.945
11.5095 20.2202 36.3858
11.9012 20.9863 37.3985
11.568 20.2196 36.4965
11.7266 21.1166 40.2143
14.587 24.9852 41.0705
11.6309 20.7324 37.2631
11.4094 20.2827 36.6554
11.5333 20.8078 37.7163
11.2229 19.7818 36.0576
11.5775 20.6632 37.3111
11.4988 20.9644 38.4462
11.3867 20.1847 36.9623
11.4704 20.5566 37.1636
10.8706 19.4269 35.5368
11.2033 20.5199 37.799
11.099 19.8384 36.4457
11.2503 20.5548 37.8981
11.5609 21.1623 38.6201
11.2516 20.6552 38.4238
11.2185 20.2978 37.5576
11.1803 20.5966 38.3373
11.2553 20.517 37.8432
11.1055 20.7841 38.998
10.99 20.1849 37.8855
10.9566 20.1887 37.6581
10.9582 20.6187 38.4804
10.24 19.0406 37.2181
11.1581 20.6026 38.5644
10.9598 20.1688 37.6606
10.7442 20.3887 38.7541
10.7385 19.9301 37.5209
10.4352 19.7961 37.9652
10.5423 20.0443 38.3251
10.53 19.8621 37.9133
10.4991 19.9438 38.2998
10.5108 20.0442 38.1264
10.1038 19.2072 37.4676
10.3023 19.5989 37.9724
10.3425 19.763 38.3875
10.3861 19.8697 38.3652
10.1976 19.7163 38.8859
10.4079 19.8722 38.6434
10.188 19.8499 39.3276
10.2862 19.5994 38.4667
10.0445 19.1906 37.745
10.1037 19.5865 38.449
9.98966 19.4344 38.6442
10.2278 19.8223 38.3624
9.76679 19.2094 38.336
9.88806 19.702 39.7414
10.1162 19.9597 40.3818
10.2253 19.8913 39.9626
10.652 20.7897 39.8184
9.56028 19.1228 38.6655
9.7362 19.5416 39.7605
9.75737 19.2126 38.7664
9.81193 19.5101 39.0427
9.66137 19.359 39.1397
9.73316 19.749 40.4122
9.61932 19.1038 39.6776
9.99234 19.4274 38.8534
9.70764 19.4649 39.2264
9.51394 19.1213 39.0109
9.54875 19.2518 39.0058
9.37157 18.7701 37.949
9.09058 18.7023 38.8193
9.27801 18.7999 38.711
9.37908 19.2726 39.5769
9.18004 18.6162 38.7507
9.22294 19.0098 39.356
9.20751 18.8054 39.2842
9.06871 18.3961 37.8882
8.98192 18.8545 39.9707
9.17978 18.6738 38.8272
9.04943 18.9888 39.935
9.14653 19.0444 40.2088
9.06667 18.7003 39.5768
9.10952 19.0883 40.3594
9.04991 18.7586 40.2101
9.38196 19.4481 40.8863
9.06134 18.9876 40.3362
9.06866 19.0496 40.6883
9.07572 18.8663 39.6463
8.60959 17.8466 38.1829
8.92673 19.0754 40.441
8.65065 18.3143 39.3813
8.59534 18.1936 39.1967
8.65465 18.5083 40.1624
8.86955 18.8086 40.1028
8.63382 18.3762 39.3195
8.39783 18.2931 39.9995
8.36406 17.8567 39.4026
8.59473 18.2927 40.0626
8.68232 18.4319 39.8835
8.33708 17.8687 39.7478
8.66865 18.5046 39.8833
8.43321 18.2676 40.1099
8.4805 18.4713 40.8919
8.43825 18.144 40.4186
8.54506 18.945 45.1012
10.5226 21.8115 43.6353
8.34077 18.3741 40.7412
8.24193 17.8943 39.9038
8.40746 18.2026 39.2107
7.98323 18.0304 40.9616
8.38178 18.2265 40.5329
8.38306 18.2058 39.8089
8.13617 18.3031 41.1593
8.08282 17.8452 40.5532
8.10077 17.6081 39.3856
8.0673 17.9815 40.127
8.04791 18.1463 41.2558
8.0314 17.7133 39.784
7.75318 17.656 40.8113
7.83503 17.0126 38.4489
7.83305 17.698 40.4296
7.9794 17.7994 40.4238
7.93192 17.7641 40.4862
8.0094 17.83 39.7628
7.56814 17.627 41.3946
7.84622 17.4607 40.0365
7.87562 17.9366 41.3655
7.97747 18.1228 40.5202
7.30769 16.6328 39.0503
7.6625 17.8099 41.9972
7.85307 17.7073 40.6265
7.55089 17.1644 40.0211
7.53459 17.3741 41.0672
7.70386 17.5384 40.9179
7.63999 17.4655 40.7704
7.59112 17.1657 39.6574
7.36751 17.2079 41.0618
7.64174 17.4298 40.9058
7.56855 17.2893 40.2209
7.55945 17.422 40.4886
7.37374 17.2581 41.5713
7.51409 17.2186 40.5372
7.47985 17.3276 40.5893
7.23756 16.683 39.1553
7.12837 16.719 39.8426
7.28476 17.0071 40.0734
7.12167 16.7381 39.9621
7.08095 16.819 40.8307
7.28011 17.0576 40.9029
7.29244 17.1941 40.9356
7.14724 16.4262 38.9624
6.9846 16.8257 40.5681
6.98632 16.7146 40.6985
7.00993 16.6051 41.1897
7.46409 17.5601 41.4958
7.12825 16.8247 40.5084
6.96715 16.5261 39.7223
6.97274 17.1197 42.3124
7.20151 16.9265 40.6875
7.01456 16.9769 41.7504
7.11302 16.952 41.1322
6.87366 16.4636 39.9444
6.7772 16.5252 40.8595
6.91174 16.7274 41.4379
7.07492 17.2761 42.2399
6.94012 16.755 40.9777
6.751 16.2649 40.5594
6.7689 16.4331 40.7543
6.67165 16.1379 40.255
6.95731 17.4822 43.2047
6.83138 16.4892 41.5048
6.82928 16.4058 40.2293
6.70575 16.5124 40.4264
6.5351 16.4476 41.7469
6.67949 16.2329 40.2075
6.60477 16.5807 41.3561
6.60014 16.4729 41.609
6.56687 16.1747 40.8506
6.6066 16.4188 41.5432
6.50775 16.105 41.2753
6.59098 16.2482 41.0525
6.49007 15.6776 38.8772
6.37608 16.6004 42.061
6.44792 16.0158 40.5647
6.37207 16.0081 40.9097
6.4583 16.0594 40.1576
6.29765 16.2713 41.4782
6.24691 15.9711 41.4897
6.30057 15.7841 41.4327
6.54264 16.3383 41.2321
6.30152 16.2908 42.6102
6.48499 16.243 41.6231
6.27397 16.1643 42.6885
6.42263 15.722 40.1231
6.20118 15.6625 40.2441
6.30185 16.2881 41.8614
6.27612 16.2312 42.2225
6.34156 16.2135 42.0535
6.13019 15.7761 42.0098
6.34373 16.3052 43.3429
6.57897 17.2999 49.5312
8.14985 19.8486 45.5722
6.26889 16.5596 43.6397
6.30111 16.1659 42.0523
6.16457 16.0885 42.3432
6.03161 15.4696 41.1726
6.15316 15.9925 42.0826
6.12604 15.9464 42.0752
6.11878 15.8045 40.7991
5.82235 15.6117 42.5734
6.12281 15.7098 41.8313
6.02946 15.3834 39.8634
5.72928 15.3269 42.0296
6.1269 15.8948 41.8246
5.96434 15.8204 42.1373
5.84795 14.9354 40.0455
5.83349 15.6754 41.8638
5.75136 14.974 40.7137
5.85955 15.3225 40.3869
5.75137 15.5039 41.712
5.73041 15.0693 41.2487
5.76802 15.0374 40.4327
5.80007 15.595 41.2008
5.55863 14.8597 41.7906
6.02492 16.0189 42.5589
5.82207 15.2629 40.0358
5.40844 14.8576 41.6286
5.69834 15.1451 41.5343
5.67467 14.9706 41.0614
5.85856 15.9437 43.009
5.73465 15.2846 41.653
5.54285 14.6295 39.6382
5.50082 15.1701 41.7435
5.5624 14.8574 40.8416
5.59675 15.2171 41.3444
5.47023 15.159 42.0264
5.58853 14.9927 40.838
5.3747 14.5269 40.2894
5.4808 15.1949 42.3277
5.51524 14.7956 40.729
5.2614 14.2922 40.3474
5.4536 14.891 40.7592
5.29087 14.4204 40.0289
5.3063 14.6265 40.8675
5.42393 14.8956 40.6615
5.16888 14.2065 39.7177
5.16731 14.6064 41.5319
5.31096 14.6282 41.2568
5.27895 14.2325 40.5293
5.36976 14.8758 42.154
5.53102 15.1253 40.8874
5.19422 14.6724 41.4921
5.24501 14.6154 41.3072
5.14479 14.03 39.4805
5.01805 14.2337 40.9859
5.22638 14.6601 41.4104
5.22769 14.7113 41.6214
5.21785 14.5399 41.1781
5.09944 14.222 41.213
5.24223 14.6676 41.2699
5.08725 14.1429 40.8161
5.16475 14.4931 40.7954
5.06161 14.4487 41.9436
5.1728 14.4789 41.7223
5.28405 15.062 42.1511
4.97817 13.9695 40.2713
4.90706 13.9622 40.7526
5.02471 14.2124 40.898
4.96702 14.1967 42.2355
5.14421 14.0388 40.2111
5.02835 14.5019 41.9179
5.06927 14.234 40.9776
4.97182 14.2163 40.8569
4.86257 13.7514 39.8715
4.85123 14.4549 42.7177
4.94598 13.7002 40.3187
4.94683 14.0315 40.2701
4.8179 14.1156 42.4832
5.02239 13.9552 40.0084
4.78886 13.721 40.5417
4.96519 14.5452 41.9577
4.85914 14.1726 41.7093
4.84996 14.0591 41.8641
4.93335 14.2032 41.8951
4.85109 13.9462 40.9038
4.74607 13.5626 39.973
4.6874 13.7503 40.972
4.78299 14.0709 42.3148
4.87373 13.9243 40.7655
4.75842 14.0246 42.4554
4.90872 14.3967 42.4129
4.82418 13.7928 41.1134
4.81081 13.8999 40.0298
4.59206 13.6935 40.7599
4.66783 13.9591 42.3309
4.76119 14.1428 42.1764
4.63211 14.2632 50.5386
6.28832 17.172 43.2957
4.55731 14.121 43.1187
4.75865 13.9144 42.3354
4.76963 13.747 40.755
4.60474 13.7233 41.0922
4.64722 13.765 41.8782
4.67047 13.4911 39.7856
4.41063 13.4232 40.8504
4.54991 13.4928 40.9522
4.62335 13.9924 42.2976
4.46729 12.878 39.5725
4.43028 13.0586 39.3124
4.41473 13.4258 40.7309
4.42479 13.2116 40.8933
4.53799 13.5532 41.0447
4.4139 13.2304 41.3055
4.56455 13.3217 40.0333
4.34844 13.092 40.2983
4.43478 13.3547 41.3377
4.4683 13.4251 41.1403
4.41801 13.1611 40.4693
4.39755 13.3617 41.4628
4.47092 13.4199 41.8181
4.47939 13.2576 40.4771
4.37502 13.3374 41.1995
4.38793 13.0782 39.9777
4.34565 13.4291 41.16
4.26967 12.7881 39.6729
4.26136 13.171 40.7375
4.21225 12.8046 40.615
4.30044 12.904 40.841
4.45048 13.3377 40.3083
4.25537 13.2173 40.7204
4.23773 13.0935 40.9249
4.28307 13.0983 40.7282
4.21612 13.0069 41.3991
4.27077 12.6961 39.0714
4.12595 13.2347 42.3555
4.39642 13.3413 40.9098
4.19345 12.8126 40.0547
4.12035 12.9197 41.2749
4.17042 12.3525 39.1406
4.12179 12.8234 40.0955
4.13741 12.7657 40.4156
4.18011 13.1915 41.5671
4.22421 13.0773 40.8423
4.10005 12.643 40.0195
4.066 12.7601 40.8965
4.15553 12.8688 40.6431
4.05121 12.2651 39.5444
4.10002 12.8481 40.58
4.09934 12.836 40.5127
4.01402 12.5577 40.7705
4.09595 12.8218 40.8224
4.09479 12.7328 39.739
3.90429 12.1561 39.8177
4.01524 12.5173 39.8003
4.00363 12.859 40.3787
3.95405 12.4751 40.5276
3.98381 12.6008 40.8716
4.08081 12.7827 41.0773
4.02991 12.6167 41.2475
4.17703 13.3989 42.3243
4.0466 12.3875 39.7893
3.92515 12.4804 41.0266
4.0624 12.9524 40.4611
3.88505 12.4467 40.6864
3.9607 12.4842 40.2213
3.90173 12.4286 40.3787
3.87086 12.0257 39.4327
3.89329 12.5331 40.3686
3.92712 12.9278 41.9442
3.90326 12.3407 41.3975
3.99888 12.5052 40.5203
3.95109 12.6214 40.7819
3.85448 12.4019 40.2532
3.82978 12.3959 40.7986
3.87855 12.3023 40.1038
3.82036 12.1882 39.5821
3.78532 12.2812 40.1246
3.75736 12.3255 41.8221
4.02869 12.8508 41.4859
3.85668 12.1655 39.5709
3.72375 12.1769 40.8828
3.86346 12.4506 40.7933
3.8294 12.2409 40.2003
3.78689 12.4022 41.388
3.87546 12.5943 41.253
3.8159 12.2382 41.1304
3.89485 12.6723 40.012
3.66526 12.1877 41.0121
3.75561 12.1011 40.1921
3.69701 12.2424 41.2041
3.76944 12.3148 41.3841
3.71429 11.8866 40.7266
3.76847 13.109 51.8898
5.04584 14.7068 40.9277
3.62529 11.9059 38.6585
3.55058 12.0355 40.2412
3.64146 11.948 40.2153
3.62252 11.9901 40.182
3.63153 11.7492 39.155
3.55709 11.9557 40.5717
3.64134 11.8576 41.4768
3.83383 12.2371 39.6274
3.57545 11.6559 38.963
3.53456 11.8113 39.5638
3.58557 12.1815 40.756
3.63328 12.1127 41.2851
3.62136 11.761 40.3466
3.64945 12.1167 41.7068
3.71554 11.9295 39.4774
3.48833 11.4041 38.6548
3.50728 11.8152 39.8622
3.52487 11.5998 39.8981
3.5748 11.6915 39.4319
3.53027 11.7722 40.2477
3.60778 12.199 41.2048
3.63256 11.9331 40.479
3.56568 11.8205 39.5944
3.51913 11.901 41.074
3.57128 11.6051 39.9304
3.54192 11.9072 39.8122
3.47817 11.7005 39.9561
3.44276 11.5148 39.7826
3.47793 11.584 39.8302
3.49307 11.6608 39.2002
3.36873 11.3269 39.5713
3.45704 11.5974 38.9553
3.34777 11.4919 40.8006
3.52892 11.7525 40.0356
3.46465 11.8316 40.5047
3.45365 11.5632 40.7153
3.51023 11.7837 39.3784
3.35081 11.5568 40.7131
3.412 11.3585 40.6342
3.5191 11.8109 40.3557
3.44006 11.4035 40.4783
3.51161 11.8825 39.8835
3.37624 11.6625 41.0753
3.46414 11.6016 40.0572
3.38926 11.5811 39.8315
3.35337 11.3549 39.8476
3.39578 11.662 40.8341
3.41125 11.165 39.0858
3.32438 11.2174 39.6448
3.43069 11.704 39.2975
3.30509 11.6716 40.1317
3.30877 11.4466 40.5358
3.37963 11.5621 41.2744
3.49595 11.569 38.3488
3.25077 11.5398 40.4559
3.30281 11.3195 39.6199
3.29013 11.2617 40.0364
3.34692 11.6754 41.5064
3.408 11.3764 38.5901
3.16052 10.9957 39.1532
3.23621 11.2127 39.9863
3.26399 11.1332 40.0675
3.32936 11.4201 40.4794
3.3198 11.5672 40.5921
3.31784 11.3858 39.7906
3.2526 11.2617 40.481
3.33125 11.4297 40.0815
3.24289 11.2372 39.8395
3.22518 10.9807 38.9242
3.22239 11.3104 40.189
3.26247 11.2628 39.568
3.18287 11.0385 39.8148
3.26273 11.195 39.1971
3.2137 11.2512 39.5244
3.20365 11.3539 41.4725
3.33759 11.1622 39.1504
3.17388 11.1736 39.5204
3.17733 11.371 41.2075
3.30351 11.4114 40.6695
3.24876 11.0254 39.1273
3.1485 11.1034 39.8972
3.15865 10.863 39.8634
3.21782 11.055 38.3418
3.07341 10.9909 39.2427
3.11521 11.0601 39.628
3.15739 11.2231 39.3621
3.06992 10.893 39.9158
3.17362 11.02 40.027
3.15004 11.069 39.9946
3.1498 11.0507 39.9102
3.19239 11.2826 39.8455
3.13701 11.2242 40.105
3.08351 10.8396 40.0379
3.15577 11.5496 41.959
3.28662 12.6129 53.9317
4.32208 13.6413 42.6874
3.2637 11.6568 41.0387
3.17504 11.3701 41.9969
3.24149 11.1762 40.4801
3.18493 11.2291 39.678
3.08218 11.0377 40.6357
3.13972 11.0898 40.6129
3.17546 11.0548 40.0114
3.10728 10.9323 38.7117
2.9916 11.0356 40.8207
3.14434 10.9464 40.7133
3.1806 11.0793 38.8951
2.98966 10.7475 38.8013
2.93582 10.5053 39.6275
3.08956 11.1843 40.5281
3.12336 10.9884 39.5275
3.02484 10.5536 38.9141
3.01292 11.0903 40.8808
3.12455 11.0362 40.1436
3.09207 11.243 40.5763
3.05558 10.7007 38.5848
2.93615 10.4405 38.7182
2.94595 10.4824 39.7082
3.04244 10.7493 38.5279
2.9309 10.5902 37.5488
2.85343 10.5772 39.4417
2.99469 10.5035 38.01
2.86705 10.5762 39.6987
2.9958 10.8507 40.0655
2.99838 10.6592 38.5716
2.92152 10.6247 39.3442
2.96796 10.5245 39.1365
2.95444 10.7311 39.2436
2.92925 10.5555 38.5571
2.88179 10.3067 39.0615
2.99014 10.935 39.804
2.92519 10.3094 38.2201
2.86145 10.5324 39.459
2.91057 10.3345 39.6224
2.9679 10.8395 39.3329
2.90005 10.5409 38.8171
2.87587 10.3208 38.4077
2.85237 10.1149 38.8579
2.92787 10.4756 38.6332
2.86955 10.6715 38.1497
2.78257 10.0516 38.5941
2.87336 10.4608 39.2626
2.91331 10.7314 40.6015
3.03841 10.9977 39.0933
2.81958 10.0832 38.1595
2.83162 10.1542 38.6246
2.88089 10.4831 38.9841
2.88689 10.4083 38.9882
2.85182 10.2024 38.3485
2.81604 10.4481 39.1851
2.85949 10.2655 38.4832
2.82728 10.5584 39.0733
2.84121 10.1692 38.1731
2.81172 10.3323 38.3431
2.78967 10.4576 39.6799
2.86125 10.1967 37.6444
2.75211 10.284 38.864
2.80173 10.1809 38.4535
2.77245 9.93024 38.4697
2.83663 10.4121 38.7206
2.82396 10.2118 38.2321
2.76757 10.4025 39.7544
2.87862 10.4883 38.9974
2.8226 10.3963 38.8314
2.82585 10.4124 38.4801
2.75632 10.0566 38.186
2.7736 10.2809 38.3656
2.75003 10.1758 37.7588
2.7225 10.2788 38.7296
2.75874 9.89204 38.0735
2.75749 10.3671 39.3384
2.81896 10.1984 38.3606
2.72415 9.86613 36.9955
2.66177 9.82635 38.0336
2.72299 10.1435 38.6247
2.76971 10.2142 38.7885
2.75529 9.98196 37.9956
2.70904 10.0671 37.8451
2.67321 9.92528 39.1299
2.80716 10.2928 38.5256
2.75187 10.1002 37.8561
2.69638 10.1595 38.0431
2.69942 10.2015 39.5502
2.77181 9.905 36.941
2.61022 9.84027 37.7475
2.64717 9.75558 37.4329
2.64593 9.90843 37.7856
2.64275 9.75474 37.4257
2.6644 10.1544 38.4428
2.69488 10.1762 38.0954
2.67571 11.1082 50.8192
3.58849 11.9885 38.4501
2.66871 10.1069 37.8573
2.64251 9.88734 37.6856
2.63899 10.1072 39.211
2.6893 9.82628 37.9883
2.64647 9.7785 38.7502
2.73218 10.0515 38.1782
2.68455 9.96982 37.892
2.63243 10.0021 38.3807
2.65567 9.74318 37.2731
2.60095 9.60315 36.9766
2.60992 9.87951 38.104
2.65277 9.98253 38.3297
2.6643 9.97663 38.2011
2.65527 9.93056 38.9402
2.70235 10.0149 38.262
2.64435 9.69614 37.2731
2.58905 9.96598 37.2829
2.55442 9.62107 37.8505
2.63837 10.0401 38.2239
2.62975 9.76593 38.1204
2.64987 9.81782 37.44
2.57388 9.96555 38.7799
2.66195 9.93343 38.1395
2.63924 10.1127 38.3223
2.59752 9.5828 38.6361
2.65584 9.6046 36.8148
2.57994 9.89524 38.0473
2.62382 9.83029 38.6694
2.6554 9.87887 37.6979
2.58449 9.98814 39.1378
2.62537 9.87567 38.6935
2.65215 9.83882 37.7728
2.62279 9.81757 37.0415
2.51603 9.74845 36.9677
2.52142 9.58153 37.2172
2.51788 9.43381 37.1132
2.55138 9.6043 38.3079
2.63126 10.0116 38.4667
2.61322 10.0007 39.0434
2.6574 9.80627 37.2213
2.52452 9.58334 38.0774
2.60142 9.82138 37.519
2.55733 9.57864 37.4871
2.56086 9.81544 38.0175
2.5727 9.62779 36.8947
2.51018 9.63248 37.5545
2.53718 9.52748 37.3161
2.54153 9.58462 37.4614
2.53781 9.46186 37.8273
2.5448 9.62465 37.0912
2.50686 9.44514 37.6352
2.5481 9.88234 38.9353
2.63572 9.9284 37.9497
2.5519 9.69619 38.0511
2.57752 9.60116 37.6993
2.54024 10.0802 39.5066
2.63271 9.77879 38.832
2.62315 10.1963 39.4805
2.61613 9.68106 38.4113
2.59683 9.79762 36.6559
2.45304 9.36328 36.367
2.43299 9.35672 37.636
2.51912 9.53597 37.4283
2.51042 9.50548 37.5832
2.51825 9.53618 37.5487
2.52062 9.80736 38.124
2.55133 9.4797 38.1557
2.54461 10.0086 39.4761
2.62124 9.51601 35.9639
2.40608 9.45527 37.7954
2.52652 9.56973 37.7769
2.5117 9.42246 35.9666
2.40494 9.60097 38.0356
2.53091 9.40494 36.4895
2.41966 9.33927 36.6569
2.43222 9.17799 36.5666
2.45781 9.64383 38.1872
2.54221 9.59769 37.8053
2.52289 9.76555 37.1925
2.46128 9.36448 37.7878
2.50724 9.69079 38.0224
2.51172 9.50302 36.7828
2.43577 9.44754 37.7782
2.50693 9.59298 37.7099
2.48845 9.23281 36.933
2.46389 9.58101 37.2685
2.47724 9.46748 36.0657
2.3695 9.33923 37.121
2.43476 9.52728 39.0767
2.58478 9.62611 36.6708
2.41391 9.20867 37.2645
2.47442 9.35242 36.4073
2.40603 9.72118 38.3389
2.51722 9.69437 37.1586
2.40834 10.1113 50.9661
3.38764 11.5264 37.8438
2.48727 9.87075 37.3069
2.43671 9.53323 37.234
2.43456 9.43223 37.2176
2.44533 9.31658 37.0647
2.42321 9.36894 36.5215
2.40301 9.38684 37.0641
2.43158 9.37848 37.7894
2.49071 9.63507 36.5238
2.40112 9.0998 36.5493
2.43708 9.40213 37.0921
2.44112 9.30317 36.6792
2.40053 9.25517 37.6052
2.47374 9.56844 37.5498
2.47283 9.42157 36.8129
2.41326 9.23893 36.9736
2.40291 9.16858 36.8101
2.4196 9.36224 38.4247
2.50476 9.33464 36.468
2.38569 9.48958 37.4219
2.45276 9.58812 37.8455
2.47655 9.47612 37.7551
2.44219 9.3954 37.0936
2.40417 9.43847 37.6493
2.43564 9.50939 37.8666
2.45317 9.35884 38.0405
2.48237 9.5795 38.7359
2.52422 9.67474 38.1129
2.49474 9.63852 37.0316
2.403 9.20908 36.6836
2.38268 9.28656 37.1306
2.40021 9.27599 38.1293
2.48068 9.59969 36.6798
2.40498 9.14598 36.4817
2.37818 9.17321 37.0691
2.41514 9.44552 37.7951
2.46498 9.50145 36.4743
2.36171 9.05868 37.027
2.41654 9.57213 37.5858
2.42507 9.48273 38.4832
2.48933 9.4859 37.4513
2.4326 9.35595 37.3673
2.42947 9.50099 37.6421
2.44256 9.47903 37.0169
2.38546 9.16195 36.7463
2.39555 9.45973 36.7646
2.36937 9.0191 36.8609
2.38842 9.38958 38.4038
2.48491 9.4174 37.045
2.40792 9.50058 38.8835
2.51105 9.68774 36.8459
2.39639 9.4632 37.3731
2.42428 9.37082 37.7276
2.44147 9.21494 36.3
2.33714 9.43702 37.533
2.42966 9.17037 36.3892
2.3357 9.23046 37.4088
2.43655 9.37499 36.8193
2.36485 9.41085 38.392
2.48493 9.33569 36.8414
2.37869 9.23186 37.5307
2.42811 9.39533 36.7357
2.36035 9.00673 35.9992
2.3116 9.27874 36.6797
2.35862 9.16882 36.421
2.33797 9.06459 36.9644
2.3851 9.249 36.2298
2.33634 9.10972 37.1839
2.41184 9.20313 37.4384
2.42669 9.32932 37.7139
2.42981 9.54691 36.8631
2.36993 9.36549 38.1579
2.45531 9.33486 37.1912
2.39761 9.44282 36.5967
2.34089 9.02336 36.767
2.38455 9.51919 38.1259
2.4482 9.20744 38.0561
2.468 9.36915 36.9633
2.38866 9.46951 36.8724
2.38348 9.45458 38.4633
2.47935 9.38591 37.9288
2.46154 9.67291 37.9502
2.43367 9.38583 37.0178
2.39704 9.27383 38.0682
2.4592 9.40619 36.4784
2.36195 9.22564 36.979
2.38256 9.26588 37.1657
2.40306 9.48776 37.8136
2.43176 9.54757 37.7831
2.44336 9.34508 37.6002
2.41956 9.38455 38.2787
2.46131 9.4576 38.2037
2.46095 9.76381 39.5935
2.55227 10.2384 40.1915
2.58805 10.441 41.9984
2.69769 11.5978 53.4001
3.43322 0 0