# pn-170911/RbIIF-64-RbIIR-1280-1959.psd
# Power spectrum* (dif=0,1,2) (really just |FT|^2)
# NOTE: only the first half! (symmetric)
# weeks: 1280-1959
# 1134 clock-days, 39 excluded
# PSD: 1441
271.357 0.046019 0.0216411
34524.1 0.523436 0.0127731
175142 3.58659 0.0127455
24625.8 0.912347 0.012721
77073.3 5.97072 0.0126913
7843.94 0.7428 0.0124509
8037.25 1.23406 0.0127332
4074.8 0.729755 0.0126874
3804.31 0.997339 0.0125849
2385.32 0.73572 0.0122873
2235.66 0.89304 0.0132314
1579.51 0.737319 0.0120178
1530.72 0.857173 0.0126123
1219.72 0.773568 0.0133649
1052.54 0.809436 0.0127347
930.616 0.818215 0.0130093
859.764 0.843508 0.0129689
765.198 0.853405 0.0141549
695.089 0.892946 0.0135234
565.006 0.807198 0.0140542
546.534 0.884351 0.0145986
522.615 0.901907 0.014368
482.987 0.947763 0.0142497
436.421 0.927808 0.0157905
426.639 0.987866 0.0151577
398.903 0.988539 0.0155444
363.178 0.978898 0.0157473
356.29 1.05354 0.0151565
344.845 1.10181 0.016535
310.393 1.04863 0.0169623
321.367 1.18968 0.0177744
300.755 1.14727 0.0175082
291.836 1.22242 0.0187428
276.082 1.26615 0.0185273
278.67 1.36546 0.0205313
254.171 1.29411 0.019705
245.619 1.30352 0.0202476
244.692 1.41304 0.020516
234.539 1.45457 0.0226283
231.598 1.45751 0.0233648
219.098 1.44984 0.0232134
226.96 1.61527 0.0257839
213.248 1.60217 0.0262319
215.879 1.70612 0.0268748
220.026 1.83926 0.0295982
197.751 1.68984 0.0290754
195.725 1.76541 0.0306249
188.274 1.7928 0.0316385
192.752 1.95309 0.0346857
181.341 1.86962 0.0347519
184.912 1.99731 0.0360235
177.427 2.00899 0.0369164
172.491 2.0335 0.0382003
174.794 2.14729 0.0401738
181.014 2.28023 0.0453563
167.464 2.29136 0.0473787
169.811 2.3382 0.0485869
157.672 2.28789 0.0506201
164.855 2.46708 0.0517708
173.837 2.71627 0.056933
159.7 2.49677 0.0527556
158.604 2.63274 0.0580415
155.498 2.69716 0.0625719
153.794 2.77395 0.0658329
153.059 2.77122 0.064889
154.764 2.96131 0.0722007
160.325 3.03003 0.0757265
151.169 3.03279 0.0775314
153.425 3.13824 0.0817137
149.022 3.14655 0.0844838
142.073 3.14449 0.0873226
144.562 3.28458 0.0887935
140.919 3.30201 0.0955431
143.868 3.41737 0.100187
138.461 3.44953 0.105019
137.712 3.48946 0.104895
141.106 3.67576 0.113252
138.37 3.67593 0.115132
134.71 3.66523 0.118531
130.514 3.69836 0.124892
128.315 3.78561 0.130429
134.106 3.93759 0.134053
137.98 4.21714 0.147414
131.776 4.06944 0.144517
132.016 4.13331 0.15209
129.758 4.23179 0.158974
132.162 4.50974 0.171865
127.037 4.3379 0.168438
122.602 4.27565 0.171358
129.916 4.72062 0.190684
133.742 4.89127 0.199472
124.15 4.7256 0.199363
124.48 4.80507 0.202903
125.433 4.95818 0.217073
121.734 4.89336 0.217254
121.746 4.99409 0.22731
125.934 5.31136 0.245956
129.959 5.54769 0.263068
121.198 5.36295 0.257838
113.91 5.12441 0.254267
123.7 5.57871 0.280861
116.51 5.43215 0.272838
120.002 5.72677 0.299111
121.76 5.90939 0.308883
114.196 5.57091 0.298531
115.66 5.85513 0.317186
117.334 6.06881 0.339456
113.041 6.01626 0.337249
111.421 5.9794 0.346894
111.478 6.06485 0.3604
119.192 6.45597 0.381542
112.344 6.20592 0.376194
110.023 6.40471 0.393051
113.349 6.73339 0.41819
116.433 6.9093 0.433767
111.938 6.77539 0.437297
111.501 6.91723 0.454733
110.526 6.97579 0.464731
105.429 6.72737 0.460158
106.566 6.85769 0.467775
110.565 7.35248 0.514778
108.401 7.38574 0.527127
104.544 7.26444 0.524457
107.088 7.56053 0.554665
109.222 7.77563 0.584933
106.962 7.63736 0.584859
106.792 7.79159 0.603133
104.218 7.70762 0.600314
100.658 7.69355 0.604751
104.645 7.9587 0.636254
101.944 7.94385 0.64822
100.429 7.91207 0.66369
101.462 8.23206 0.692763
95.8538 7.89673 0.67471
95.638 7.8974 0.684461
100.623 8.60049 0.752383
98.039 8.56565 0.756092
101.228 8.75851 0.79502
95.2703 8.44048 0.772776
98.1696 8.76742 0.809476
99.6146 8.87848 0.83159
95.625 8.82777 0.842163
93.6855 8.66393 0.840197
93.5873 8.8856 0.877224
94.3202 8.9433 0.888568
98.5794 9.53236 0.9548
90.3339 8.9381 0.911897
95.6813 9.50623 0.981506
92.9519 9.30944 0.990932
100.231 10.2792 1.09325
96.4927 9.89593 1.05514
94.1377 9.94241 1.0923
84.2441 9.02032 0.991503
94.8318 10.2577 1.14614
83.5306 9.14592 1.04213
87.1534 9.76699 1.12565
90.2305 10.1194 1.17123
86.4865 9.81177 1.14949
91.0593 10.4491 1.2377
94.2881 10.9461 1.3156
92.7734 10.897 1.34211
86.4324 10.3234 1.28445
83.9562 10.2254 1.2719
93.8481 11.3598 1.42249
87.3518 10.7977 1.37589
92.819 11.6463 1.49885
84.6529 10.7103 1.41146
84.6629 10.9396 1.44808
82.8678 10.7658 1.42826
84 11.1761 1.51797
86.9947 11.785 1.62285
83.7334 11.2631 1.55589
83.3773 11.4296 1.60147
84.5339 11.769 1.67986
83.9769 11.6991 1.67485
80.3437 11.2321 1.63684
80.778 11.5427 1.67655
77.9161 11.322 1.68463
79.3626 11.7672 1.75408
74.1349 11.0503 1.70323
76.8326 11.3838 1.73644
77.5158 11.7208 1.81098
80.0728 12.2187 1.9109
78.5038 12.1377 1.93116
75.6187 11.8111 1.89642
82.6621 13.0947 2.13013
79.2613 12.5243 2.04948
79.8985 12.7434 2.08949
73.4173 12.0393 2.0311
80.2126 13.1366 2.2003
74.6566 12.5765 2.16187
76.2235 13.0727 2.28501
77.9705 12.9378 2.22383
74.8947 12.7562 2.21845
73.1556 12.6807 2.28157
72.8374 12.7243 2.26576
74.7523 13.2074 2.38299
72.3224 12.98 2.36752
76.1749 13.7921 2.55253
74.1834 13.4845 2.52208
70.2365 12.8974 2.45097
75.1802 14.0498 2.64896
72.4748 13.6599 2.62951
73.9275 14.1631 2.77112
71.3092 13.6242 2.64118
73.4777 14.4034 2.86345
73.9026 14.4456 2.88411
68.3692 13.4313 2.72114
73.284 14.6362 2.9617
68.352 13.794 2.84937
68.0842 13.7853 2.86265
70.6678 14.3948 2.97616
69.3512 14.5038 3.07664
66.413 13.8614 2.97136
66.1912 14.1018 3.05735
68.3166 14.5273 3.16388
68.7157 14.7182 3.20094
68.071 14.7 3.22036
68.7735 15.1315 3.38729
66.842 14.8687 3.33948
64.3586 14.3155 3.25416
63.3176 14.4097 3.32336
66.3016 14.925 3.46095
63.5742 14.5932 3.40535
65.3366 15.089 3.55969
64.8051 15.0478 3.54718
63.787 14.9192 3.55506
60.5358 14.3722 3.50134
63.9703 15.2044 3.70468
62.9583 15.1155 3.70247
62.4232 15.1284 3.7275
60.5147 14.796 3.67669
63.518 15.7719 3.96142
62.618 15.5783 3.93604
62.0184 15.6719 4.04288
59.9227 15.236 3.96799
60.0448 15.2121 3.92977
61.9066 15.9833 4.21901
59.082 15.2442 4.02613
61.8355 16.4702 4.42041
62.3851 16.347 4.38839
59.8035 15.8812 4.29383
61.5508 16.3546 4.45082
59.2152 16.258 4.53807
58.8634 15.8853 4.40881
62.5906 17.3002 4.8558
56.8005 15.86 4.49048
59.9662 16.3371 4.56122
60.6035 17.1327 4.92021
57.8291 16.4134 4.73852
58.5285 16.8796 4.98095
58.2477 17.0069 5.04564
58.9979 16.9661 4.99561
58.7638 17.3307 5.14668
57.1215 16.9469 5.12995
54.9173 16.3135 4.90468
57.8632 17.2753 5.23668
54.3098 16.3095 4.99245
54.4401 16.6102 5.20215
56.1467 17.3782 5.39215
52.4541 16.0402 5.0239
55.8521 17.4928 5.52743
56.3271 17.8166 5.63803
51.0717 16.0992 5.17724
53.3184 16.9511 5.45068
53.9784 17.3093 5.62962
50.9403 16.8375 5.56697
52.1946 17.1507 5.6662
50.8309 16.7203 5.60124
53.5002 17.3704 5.80612
49.7821 16.5414 5.6227
53.0223 17.6973 5.95617
49.801 16.9987 5.89505
51.8576 17.5681 6.0425
51.6079 17.8194 6.16842
49.3488 16.9703 5.93042
49.7061 17.252 6.09617
50.155 17.3553 6.09818
47.5225 16.5899 5.93523
52.1543 18.6354 6.71791
50.0705 17.8626 6.46004
50.9566 18.4761 6.71147
48.5653 17.851 6.61194
48.7804 18.0911 6.79834
49.4805 17.9629 6.65518
48.1857 17.6472 6.60471
50.7977 18.9374 7.18828
51.5831 19.3418 7.34478
51.3751 19.4228 7.3894
48.0389 18.3017 7.1014
47.4878 18.1255 7.08846
49.2115 18.7027 7.20259
46.4081 18.2186 7.22616
46.1567 18.1222 7.20436
45.1756 17.882 7.23686
46.1564 17.9485 7.10875
45.8083 18.1258 7.23083
47.3435 19.1312 7.73547
45.1106 18.4307 7.59441
43.6869 17.9038 7.4867
45.5718 18.2866 7.55885
46.2141 18.7856 7.71462
45.6629 18.9881 7.98394
44.3844 18.3658 7.72811
42.936 18.1528 7.71898
41.8743 17.5665 7.47308
44.8678 19.0938 8.23935
44.5403 19.0769 8.32207
47.3077 20.2993 8.87892
46.2286 20.0569 8.75021
45.4753 19.7032 8.72648
45.4055 19.6895 8.56466
42.64 19.0405 8.65184
44.0257 19.4311 8.70801
42.819 18.982 8.52815
43.2092 19.3552 8.75754
38.5792 17.4214 8.08115
41.2946 18.7808 8.67417
41.6638 18.8702 8.61497
40.4588 18.6834 8.65052
38.812 18.0858 8.53707
43.0197 20.1756 9.47408
42.8338 20.0336 9.45858
39.0749 18.554 9.00357
40.2717 18.9912 8.98077
37.5066 18.0243 8.78877
40.2903 19.2921 9.32253
39.2929 18.9644 9.27661
40.845 19.8568 9.70273
39.2859 19.2411 9.58116
40.227 19.7298 9.7803
39.2945 19.385 9.67179
38.5986 19.1095 9.63644
40.3664 20.0031 10.0385
37.8222 19.0618 9.80325
39.3782 19.7383 9.97784
37.745 19.3917 10.107
37.8737 19.0275 9.73829
38.7366 20.1958 10.5505
37.9526 19.6971 10.3363
37.482 19.6512 10.4883
35.9068 18.4966 9.74278
35.825 18.7746 9.95408
37.2668 19.8846 10.5623
35.833 19.0925 10.3319
35.4592 18.7482 10.2491
38.2337 20.3076 10.9587
36.43 19.6968 10.7572
35.8454 19.9142 11.2385
36.4469 19.578 10.8204
36.1611 19.9441 11.1404
37.5619 20.5251 11.3667
37.4236 20.3662 11.2363
37.0633 20.7703 11.7356
36.8401 20.2882 11.2148
34.4645 19.6631 11.2763
34.1085 19.2427 11.0181
34.9251 20.3632 12.0639
37.0328 20.6773 11.7717
32.8907 19.0191 11.2017
34.1862 19.8559 11.6435
33.6563 19.4376 11.3955
34.6712 20.3311 12.0236
33.9698 19.8099 11.5798
33.1671 20.2409 12.4178
33.9777 19.5307 11.4621
34.5914 20.6427 12.3267
32.1569 19.3234 11.731
32.2767 19.7757 12.1784
33.0307 20.2579 12.4835
33.2237 19.8503 12.0039
32.4946 20.1055 12.5129
31.6431 19.6052 12.2673
30.0545 18.9394 12.234
33.6827 20.9275 13.2685
32.1923 19.6759 12.2231
30.8729 19.97 13.137
33.0495 20.3316 12.7337
30.6081 19.3435 12.409
30.2969 19.2495 12.4676
30.2938 19.2972 12.4597
29.6237 18.8551 12.1438
28.3593 18.5564 12.3876
32.4317 21.2649 14.0289
31.9762 21.1241 14.1169
31.6317 20.556 13.5651
29.8794 19.628 13.1152
30.2305 20.0242 13.4356
29.9263 20.1223 13.5835
30.2483 20.2692 13.6967
30.8428 20.9633 14.336
30.5108 20.5106 14.1244
30.0431 20.5396 14.2086
29.3078 19.7756 13.4467
29.2057 20.5888 14.6824
31.1346 20.865 14.102
28.9443 20.3873 14.4642
28.7123 20.05 14.0914
28.5962 20.0315 14.2642
27.896 19.5772 13.9632
28.491 20.1279 14.4066
27.3313 19.3833 14.0273
28.1987 20.1276 14.5776
28.8825 21.079 15.5337
28.7713 20.4858 14.9039
28.5156 20.2455 14.6075
27.2811 20.1854 15.0799
29.1704 21.0643 15.4019
27.8384 20.478 15.0129
26.6233 19.8504 14.9658
26.6087 19.6702 14.9145
27.9711 20.3801 15.0595
25.9006 19.2551 14.5161
27.2509 20.6332 15.752
26.3809 19.8239 15.1414
26.7026 20.1396 15.2904
26.0935 19.8066 15.3319
26.1481 19.9449 15.5102
26.2214 19.9094 15.3698
26.1448 20.2969 15.9352
25.5549 19.8578 15.6042
26.0966 20.3194 16.1209
26.6906 20.6945 16.2155
25.3789 19.6494 15.41
25.9443 20.5938 16.4769
26.4147 20.7328 16.5549
26.4451 20.9637 16.7929
25.8907 20.7855 16.7963
25.8239 20.4869 16.5979
25.0079 19.9428 16.1763
25.4551 20.5714 16.8289
24.7795 19.9747 16.4696
24.7317 20.3247 16.8821
26.5018 21.6305 17.6176
24.1073 20.0943 17.1281
25.7115 21.0304 17.5312
25.7801 21.3991 17.9058
25.1984 20.8919 17.5093
23.6794 19.9915 17.1908
25.0453 20.8535 17.5193
24.0656 20.5703 17.9168
25.714 21.5886 18.3215
24.0342 20.1797 17.402
25.5581 22.0692 18.9573
25.1019 21.421 18.3445
22.6564 19.5227 17.0237
22.9129 20.0064 17.672
22.7924 19.9365 17.6733
23.6972 20.8407 18.4406
23.7167 20.827 18.2213
22.9971 20.3883 18.2819
23.9734 21.1199 18.9117
23.743 21.0922 18.8241
23.5802 21.2747 19.465
23.7353 21.191 19.0273
23.0282 20.6451 18.81
23.3915 21.4477 19.8962
24.3261 21.5705 19.5341
23.8544 21.2942 19.0124
22.4582 20.5789 19.1683
22.779 21.2745 20.1789
23.689 20.6301 18.4906
22.2471 20.7699 19.41
22.03 20.2985 18.8852
22.6133 21.1821 20.1231
22.0869 20.3887 19.1489
22.8458 21.3815 20.1043
22.9452 22.0422 21.2492
22.7661 21.2728 20.3793
23.1303 21.8482 20.6896
22.6178 21.6006 20.7649
22.538 21.6367 20.913
21.9661 20.941 20.0445
21.0151 20.8089 20.953
22.7541 21.6504 21.0472
21.9575 20.9368 20.504
22.211 21.4124 20.8086
21.7053 21.7103 21.8598
21.4846 20.7197 20.5388
20.9181 20.557 20.3712
21.047 20.8238 20.773
21.9353 21.8938 21.8046
20.1315 20.0017 20.3203
21.862 22.2348 22.6912
21.0009 21.0943 21.5289
20.7399 20.9627 21.5704
21.0696 21.0956 21.2781
20.3908 20.5035 20.7017
19.4242 20.4141 21.5916
20.7371 20.7877 21.3303
20.6916 21.3267 22.2515
20.8125 21.6556 22.4877
20.2999 21.2139 22.4345
20.6376 21.5943 23.0012
22.0261 22.5691 22.897
19.2087 20.6583 22.5046
20.5942 21.7574 23.2828
19.8702 20.6424 22.0095
19.8448 20.7544 21.8562
19.7957 21.4208 23.2448
19.501 20.7183 22.4224
20.1415 21.2215 22.5335
19.5026 21.4585 23.6385
19.246 20.3178 21.8598
18.5275 20.2148 22.3154
19.2564 21.4324 24.2809
20.1647 21.1268 22.455
18.2171 20.4803 23.4321
19.9994 21.2781 23.2666
20.149 21.7917 23.5192
19.7853 22.4367 25.2785
19.5799 21.6817 24.1072
18.7949 21.1172 24.0428
19.0267 20.687 23.1962
19.2743 21.763 24.4933
18.2559 20.4441 23.331
18.311 20.7072 23.393
17.8578 19.7096 22.5271
18.4323 21.3 24.7239
18.3777 20.5227 23.2519
16.9805 19.4868 22.8652
18.3183 20.7497 23.4703
17.3365 20.1953 23.9381
18.151 21.0982 24.8945
17.8142 20.756 24.7423
19.2341 21.6102 24.7822
18.2588 21.1639 24.5699
17.1429 19.9944 23.6689
17.5308 20.7255 24.8084
18.2793 21.7508 26.028
17.4202 20.1865 23.8426
16.4131 19.1311 23.092
18.1551 21.6155 25.3615
16.7828 20.094 24.6774
18.0184 21.6776 25.9845
17.1285 20.7127 25.3725
17.7414 21.8711 27.2012
17.9165 21.1428 25.4146
17.3984 21.4153 26.5327
17.4876 21.5762 26.9326
17.1077 20.3354 24.866
16.0525 19.8414 24.8618
16.6368 19.8861 24.6216
17.3491 21.5343 26.4617
16.9581 20.8809 25.7695
15.6891 19.5614 24.7466
16.2253 19.9354 25.0248
16.1789 20.1651 25.4554
16.2409 20.3184 25.725
16.2282 20.064 24.9502
15.8905 20.2682 26.1445
16.3216 20.7947 26.5865
15.0291 18.6792 24.0599
15.5272 19.8206 25.6663
16.0949 20.4104 25.7699
15.351 20.0328 25.9263
14.5421 18.9135 24.9307
14.8724 19.0657 25.1031
15.4739 19.7319 25.4087
15.4311 20.4689 27.4052
16.0887 20.4487 26.0874
14.9711 20.0864 27.0033
14.6266 18.7812 25.1401
15.2503 19.9172 25.9077
14.6646 19.8716 27.3316
15.3449 20.0635 26.8233
15.5552 20.7208 27.5074
14.185 18.9313 25.8785
14.4294 19.3713 26.3255
14.244 18.7483 25.9098
16.1431 21.3121 28.104
15.287 20.7754 28.3051
14.681 19.6872 26.9134
14.9613 20.4485 27.9875
14.5763 19.9453 27.8063
15.1333 20.8903 29.044
14.9343 20.2826 28.1921
15.3766 21.0271 29.2543
16.2907 22.4595 30.5462
15.001 20.7728 28.9638
14.6255 20.2051 28.5455
14.5295 19.8621 27.4151
13.4029 18.8807 27.1977
13.9276 19.2891 27.2278
13.3815 18.9095 27.551
14.1824 19.3469 27.3277
14.9896 20.5222 28.0639
13.3404 18.926 27.3279
13.7302 19.7079 28.4311
14.2248 20.4389 29.6265
13.9006 19.5433 27.8176
13.236 18.9606 27.6683
13.8504 19.8265 28.5009
12.993 18.3496 26.55
13.6747 20.1262 29.917
13.6953 19.5991 28.9402
13.7769 19.5877 28.2676
13.6989 19.8709 28.7318
13.4269 19.743 29.2445
12.3881 17.885 27.1164
13.5763 19.5392 28.3879
12.8246 18.9839 28.2567
12.9605 19.181 28.9943
13.4617 19.7006 29.3795
13.0385 19.2903 29.3347
13.4129 20.1314 30.949
13.3834 19.38 28.8119
13.8267 20.6296 30.1392
12.6144 19.535 30.3728
13.061 19.6165 30.4787
13.3798 19.3957 28.6599
11.9854 18.003 27.8225
12.0578 17.7805 27.1099
12.5163 19.4505 29.9879
12.2235 18.4165 29.0091
12.8014 18.4764 26.9398
11.7573 18.4738 28.5726
12.0412 18.8919 29.7559
11.8916 18.4959 29.4778
12.3512 18.8062 29.2327
11.5458 17.9643 29.3023
13.2731 20.4526 31.6913
12.6871 19.5765 30.8848
12.5451 19.0156 30.0572
13.2827 20.4316 31.2536
12.1034 19.4595 31.1178
12.3385 19.1755 29.9663
11.6533 18.6639 29.7651
10.9095 17.0592 27.8057
11.7298 18.7399 30.065
11.5624 18.2188 29.7047
12.3477 19.7016 31.6621
11.8726 18.5074 29.4464
11.1372 17.919 29.4775
11.8362 19.2885 31.487
12.0598 19.3118 30.8898
12.1255 20.1053 33.5349
12.2801 19.1103 30.5788
11.5821 19.0761 30.8853
10.7852 17.7594 30.0516
10.8763 17.7514 30.2719
11.9568 19.882 33.2928
12.3101 19.7493 32.4212
11.9017 19.5069 31.8272
11.2607 18.5979 31.4067
11.3946 18.3908 30.2192
11.0389 18.4634 30.4789
10.6631 17.801 30.0976
10.8719 18.5142 32.0494
11.3658 18.7021 31.3102
11.3306 19.6128 33.5484
10.8486 17.8109 30.9615
11.5944 19.5085 33.2668
11.4335 18.9642 31.6197
10.4807 17.8042 31.2844
11.5241 19.3454 32.2806
11.1753 19.2096 33.1146
11.0771 18.6893 32.2146
11.2764 19.3421 32.6102
10.7043 19.1132 33.8992
10.454 18.1044 32.7781
10.8468 17.7148 29.9794
10.5959 18.3354 32.1792
11.062 19.0963 32.8182
10.3901 17.9291 31.5322
10.8575 18.994 32.6008
10.7025 19.4145 34.8362
10.6232 18.8058 34.1187
10.3237 17.8173 32.2104
10.5182 18.3207 32.6481
10.4148 17.9896 31.7875
10.344 18.2493 32.9218
11.1303 19.6403 34.5108
11.1488 20.0931 35.4752
10.1039 17.7593 32.0942
10.2907 18.5674 33.6762
9.98549 17.6772 32.6895
10.4678 18.3673 32.2005
9.70334 18.004 34.1458
10.877 19.4413 35.3606
10.5579 19.0511 35.0284
10.7173 19.0435 33.7612
9.78879 17.7076 32.9624
9.96968 17.5425 31.6075
9.67512 17.9733 32.8189
9.15081 16.6044 31.3504
9.1625 16.4391 30.6675
9.92105 18.6783 34.922
9.83551 17.5549 32.6386
10.2058 18.8974 34.3159
9.71342 18.5568 35.2464
9.68736 17.0915 31.4357
9.20236 16.8885 31.0604
8.8846 17.3323 33.9145
9.68507 17.7108 32.7365
9.11484 17.5891 34.7828
9.71898 17.6804 33.7072
9.85904 18.0168 33.1917
9.48603 18.0483 33.8323
9.28603 17.9806 35.0352
9.47333 17.3368 33.0941
9.32262 17.1974 32.158
8.91543 17.1817 33.7282
9.58673 18.3037 35.0367
9.23295 17.1593 32.7502
9.32804 18.2748 34.6899
8.6803 16.4439 32.2824
8.68146 17.1474 34.4823
9.24751 17.7602 34.858
9.16862 17.1563 33.6605
9.49586 18.2266 34.7007
8.90156 17.536 34.7126
8.80898 16.8258 32.9213
9.02771 18.3664 37.1236
9.45379 18.2904 36.7745
9.53354 17.7951 34.9167
9.33437 17.9623 34.7321
8.44762 16.6298 33.2575
8.53503 16.6437 33.7609
8.99441 17.3684 34.603
8.98691 17.5299 34.4081
8.64076 17.2246 35.3958
9.08347 17.6445 35.1096
8.92033 17.196 33.017
8.30772 17.1722 34.0338
7.75112 15.9286 34.4846
8.92832 17.226 33.8863
8.76614 17.7573 35.2901
8.59562 17.8815 36.2821
8.29129 16.8681 35.2492
8.39903 16.5573 33.5724
8.2004 16.8393 35.5385
8.71758 17.3193 34.6964
8.18019 16.5558 34.0362
8.13834 16.4307 34.269
8.17237 16.6321 35.5487
8.65409 17.2211 34.8213
8.50113 17.5542 36.0024
8.0079 16.6891 35.9891
8.4563 16.905 35.4004
8.67354 17.6276 35.9492
8.30897 16.8055 34.5107
8.22067 17.0546 35.5004
8.2111 17.0982 36.2211
8.3087 16.9137 34.6409
7.82585 16.604 35.8184
8.05038 16.4683 34.5787
8.31067 17.3305 35.5271
7.57272 16.0814 34.7276
8.00306 16.8299 35.2193
7.99615 17.1922 36.8971
7.83491 16.2147 35.0962
7.69115 16.0803 34.363
7.56133 16.3954 37.1691
8.52085 17.2787 36.1189
8.04237 16.9803 36.0073
7.51712 15.5296 32.9265
7.59293 16.6062 35.6492
7.56748 16.2852 35.3959
7.36165 15.4491 33.6488
7.72674 16.9147 36.4684
7.58299 16.3967 36.2349
7.75995 16.4729 35.7733
7.58642 16.3961 35.7353
7.54657 16.4329 36.2551
7.74263 17.0212 37.2335
7.52445 16.3199 36.3784
7.67161 16.3576 35.819
7.5626 16.7776 37.3069
7.51206 15.84 34.4899
7.28223 16.3779 36.5989
7.04513 14.8866 33.9992
7.43601 16.1855 35.5913
7.52743 16.1968 35.1035
7.27946 16.1446 34.6498
6.89683 15.7256 35.4984
6.96416 15.7529 36.5122
7.50669 16.906 38.6114
7.54457 16.7935 37.9806
7.22562 15.194 33.8514
6.9063 15.6935 36.9612
7.64879 16.7331 37.0158
7.05845 15.3508 33.9616
7.09434 16.4954 37.4027
6.74076 14.742 33.778
6.93347 15.8517 35.9311
6.90335 15.5849 35.9611
6.70394 14.8257 34.5934
7.34501 17.1045 38.9039
7.41717 16.7364 37.3766
6.8236 15.729 36.4623
6.66745 14.7396 34.7839
7.20655 16.702 37.171
6.61548 14.7486 34.0684
6.80605 16.2479 38.2937
6.9977 15.8907 36.4953
6.55709 15.1564 36.4264
6.93562 16.4111 40.4707
7.74341 16.5599 35.2523
6.41108 15.9779 39.6818
6.97317 15.4922 36.6459
6.62775 14.9478 35.7508
7.15697 16.6168 37.6705
6.80974 15.5537 35.292
6.32323 15.666 38.7373
6.78092 15.2807 36.5267
6.78714 15.6659 37.6225
6.72577 15.0165 33.9813
6.1418 14.7914 36.1069
6.58732 15.6281 37.0061
6.27932 14.1271 33.7431
6.34961 15.2475 36.9508
6.703 16.0567 37.3043
6.31054 14.5855 35.4161
6.49896 15.7096 37.9724
6.47875 15.3196 37.0413
6.47856 15.6681 38.7255
6.8674 16.0518 38.3675
6.45522 15.1875 37.0266
6.48242 15.3205 36.4214
6.48598 16.2808 41.7309
7.1873 16.643 38.1534
6.17459 15.6056 41.0537
7.00084 16.1635 39.346
6.91082 16.5732 40.088
6.58935 15.4955 37.8045
6.87032 17.0724 41.2818
6.50643 15.6482 39.2543
6.86505 16.9426 41.6207
6.82488 16.3665 40.2941
6.51132 15.4648 38.0574
6.47391 16.2348 40.9583
6.84254 16.9829 42.3573
6.67147 15.8383 38.5416
6.55025 16.6023 41.6494
6.49827 15.7769 40.0522
6.64464 15.9962 39.5358
6.67571 16.8233 41.7769
6.49502 15.6888 39.6401
6.84006 17.3246 42.828
6.66132 16.7494 42.8667
6.8525 16.7114 41.5011
6.48038 15.9824 40.3506
6.32664 15.7755 40.719
6.64892 16.6956 42.7256
6.75124 16.5573 41.9641
7.01236 17.8807 44.4113
6.58383 16.5021 42.3517
6.48371 16.0252 40.5164
6.43409 16.4765 42.324
6.42966 16.1719 42.2745
6.53353 16.3202 42.4369
6.60622 16.7393 43.2959
6.65568 16.3706 41.3631
6.36209 15.8835 40.813
6.56855 17.1267 42.7499
6.12784 15.5889 41.8303
6.34463 15.6431 39.9646
6.27886 16.4884 42.0023
6.09927 15.8443 42.36
6.52236 16.3622 41.4398
6.11976 15.4624 40.145
6.27394 16.4924 42.2655
6.14393 16.3862 44.3803
6.50893 16.0951 42.4266
6.56975 17.1593 43.7129
6.33998 17.0487 45.0149
6.31743 16.3185 43.4677
6.14264 15.574 41.5098
6.32681 16.2047 41.7959
5.94811 15.6451 41.5402
5.9281 15.1949 40.0234
5.82396 15.1639 41.1594
6.12732 15.8902 42.2169
6.02415 15.5152 40.8958
6.04049 16.0665 42.3956
6.29166 16.6649 42.871
5.87255 15.8914 43.4362
5.92706 14.9089 39.1726
5.72308 15.5597 42.5775
6.16404 16.4165 42.9258
5.69576 14.9415 41.6747
6.03666 16.0119 42.1383
5.72547 15.1834 41.5743
5.92564 15.6049 41.3929
5.75233 15.4925 42.4942
5.96983 16.1094 43.7998
5.8014 14.947 40.9701
6.04472 16.63 44.3448
5.72497 14.8418 40.2694
5.37324 13.712 38.1025
5.63747 15.5148 41.1259
5.40509 14.9886 42.3455
5.61813 14.7741 41.2671
5.53455 14.6757 40.5892
5.56278 14.659 40.7191
5.79004 15.6278 41.811
5.56322 14.7207 39.6201
5.33174 14.5348 40.997
5.40976 14.2661 39.1209
5.2558 14.2974 39.5148
5.30243 14.6976 41.4634
5.66259 15.2033 39.9474
5.21633 14.841 42.494
5.72675 15.5578 42.5242
5.57524 15.5203 42.881
5.44949 15.2371 43.5951
5.60209 15.1641 42.2485
5.51728 15.0051 42.2858
5.56044 15.2233 41.1654
5.18708 14.3052 40.4446
5.23237 14.8173 41.8673
5.07662 13.734 40.5705
5.46265 14.9056 41.8982
5.41595 14.8021 41.0421
5.23662 14.4223 41.2261
5.33316 14.7783 41.7043
5.28657 14.6299 41.9042
5.46376 15.648 44.5603
5.6689 15.8786 43.633
5.26999 14.8304 42.2828
5.34102 14.8713 42.4395
5.29451 14.8131 43.3162
5.5314 14.8899 41.8724
5.32472 15.0405 43.8265
5.47137 14.9258 41.1646
5.22542 15.0984 43.5608
5.44683 15.2219 42.7327
5.13651 14.175 40.5739
5.03375 14.5561 41.2126
5.02639 14.3024 40.2159
4.84449 14.4261 43.1391
5.13251 14.488 42.8623
5.16983 14.533 42.9479
5.30028 14.9999 42.0005
4.93381 14.0545 41.1604
5.20286 15.4663 45.1826
5.18976 14.1093 40.917
4.90903 13.9466 40.8741
4.88095 13.9575 41.2702
4.94147 14.1693 42.1391
5.22744 15.3031 44.9325
5.37281 15.5694 46.3898
5.46072 15.8345 46.1232
5.25929 14.7471 42.4157
4.96277 14.6432 43.7276
5.13822 14.3407 40.7763
4.69307 13.9251 41.5695
4.76551 13.6708 41.3578
5.16212 15.2087 44.9375
5.3661 15.8147 44.897
4.8958 14.0036 40.8336
4.68165 14.0707 41.3321
4.5772 13.2033 40.897
4.89954 14.5112 42.9869
4.88476 14.2283 42.5512
4.75302 13.4232 40.8019
4.92182 14.6963 43.5044
4.86008 13.909 41.2492
4.77623 14.1219 43.0426
5.0867 15.1843 43.0375
4.52044 13.4565 41.4216
4.60127 13.7037 43.3367
4.92113 13.7855 40.5629
4.72691 14.5297 42.9487
4.63903 13.7816 42.3708
4.74689 14.0774 43.7718
4.86381 13.9263 41.3396
4.60667 13.7496 41.4879
4.68319 13.8209 42.0657
4.67339 13.5327 38.5931
4.29676 13.7215 43.4897
4.7223 13.8524 40.5022
4.45564 13.9955 43.8808
4.70025 13.7145 42.4406
4.77154 14.3092 42.7959
4.54051 13.7941 44.5314
4.85059 14.1704 42.3828
4.61962 13.5994 39.9501
4.23569 13.0739 42.5534
4.71405 13.8766 40.233
4.3074 13.375 41.3258
4.42136 13.8101 42.4457
4.56958 14.2856 44.2905
4.59263 13.2233 39.3812
4.17479 13.1099 41.7609
4.40909 13.4274 41.3425
4.36264 13.2129 42.0145
4.46534 12.9501 38.0567
4.04646 12.3522 38.2109
4.14933 13.4145 42.8963
4.58251 14.5339 45.0734
4.52119 13.7567 44.2885
4.56769 13.5895 43.4144
4.49917 12.9413 39.6027
4.24845 13.2772 42.9698
4.39806 12.7327 40.4831
4.47493 13.8281 41.9253
4.3458 13.6259 43.4099
4.40129 12.9813 40.562
4.23918 12.9473 40.4853
4.30573 13.8825 43.0984
4.38441 13.5645 42.2969
4.15528 12.437 39.0673
4.16837 13.6394 43.2176
4.31004 12.8034 39.3885
4.11941 13.2395 41.4326
4.03244 12.6001 40.2092
4.03359 12.6814 40.995
4.15579 12.8135 40.7202
4.11693 12.927 42.5318
4.30565 13.137 39.9252
3.9834 12.6794 42.5925
4.43535 14.2017 44.2062
4.2762 13.0203 40.1886
3.93463 12.4698 41.9874
4.36189 13.7409 42.2852
4.09687 13.0812 42.1703
4.13731 12.9345 43.2565
4.33094 13.3937 41.4086
3.89911 11.9565 39.6327
3.9426 12.3302 40.2324
3.97214 12.1466 37.4998
3.61264 12.2987 42.5552
4.21536 12.9555 40.7863
3.96785 12.3378 39.7081
3.90645 12.6325 41.3627
4.14679 13.2881 40.8159
3.79303 11.8163 38.818
3.88442 12.4264 41.7564
4.10649 13.2004 42.1961
4.10248 13.0556 41.958
4.01761 13.3599 43.7508
4.16306 13.2866 42.1427
3.85446 11.7668 38.5573
3.82763 12.5572 41.1596
3.90205 12.1179 39.2858
3.67063 11.7171 39.6281
3.8625 12.502 39.8949
3.8461 12.7946 42.024
3.8627 12.0754 38.4813
3.63042 12.0835 40.1502
3.77586 12.3583 41.4801
3.88738 11.928 38.3374
3.68033 12.2271 40.4343
3.76955 11.9336 38.4445
3.60561 11.8185 39.2227
3.6137 11.4331 37.414
3.50926 11.5057 38.6395
3.58521 11.4677 38.6493
3.59969 11.9006 38.8533
3.5443 11.8405 41.4686
3.80531 11.9313 38.7335
3.57469 11.7481 39.9804
3.68685 11.7949 39.3232
3.74117 12.3954 40.5923
3.72335 12.1562 39.7095
3.68261 12.598 41.7602
3.59193 11.1781 38.3751
3.54617 11.755 38.8554
3.47377 11.2658 39.0279
3.61555 11.6537 37.6354
3.36161 11.1779 38.5404
3.48116 11.077 37.404
3.55579 11.7301 38.5963
3.50971 12.1925 41.7667
3.73444 12.5728 40.9081
3.53996 11.5627 39.6629
3.59493 11.9241 41.2875
3.71562 11.8457 39.2659
3.56678 11.8485 38.5045
3.40694 11.3455 38.0982
3.41071 11.5075 38.9337
3.53534 12.1473 41.4758
3.55775 11.526 39.596
3.482 11.369 39.763
3.63611 12.0526 40.4309
3.58899 11.7328 40.3201
3.59163 11.9934 39.3198
3.42784 11.68 40.6914
3.64379 11.8769 39.7487
3.46705 11.5883 39.8658
3.49481 12.5513 43.2171
3.61214 10.9522 37.1507
3.42773 12.1346 40.9779
3.4889 11.6954 39.4644
3.36742 11.1669 39.0816
3.40731 11.4921 39.1185
3.42463 12.092 41.3685
3.47276 11.534 39.5084
3.41452 11.4892 39.106
3.32629 11.0484 37.9281
3.25698 11.2398 39.8387
3.47517 11.8332 39.7965
3.34872 11.4242 40.6358
3.46691 11.7042 41.8039
3.61267 11.9597 39.4664
3.28272 11.5596 40.7609
3.44471 11.624 40.8741
3.44292 11.4473 39.7546
3.37641 11.1024 38.6025
3.28905 11.4915 40.9803
3.45693 11.6923 40.9606
3.48889 11.6952 39.384
3.2994 11.2493 39.4226
3.36089 11.5732 39.4616
3.30384 11.3812 39.3866
3.34668 11.643 40.6849
3.30568 10.9792 39.3112
3.29097 11.1 37.5543
3.14981 11.0107 38.906
3.23476 11.1734 39.7931
3.27818 11.2143 40.9786
3.42458 11.0323 37.8358
3.22812 11.2311 40.1883
3.3366 11.6247 41.0418
3.29712 10.5087 37.1749
3.23135 11.3064 39.6529
3.34467 11.7928 41.0192
3.31383 11.2712 40.1002
3.25602 11.0062 40.0328
3.32 11.31 40.5379
3.35355 11.5035 39.4335
3.20941 11.0205 39.3037
3.2713 11.0102 38.0347
3.10436 11.1845 39.9853
3.29537 11.5291 40.5386
3.23781 11.1804 40.4679
3.34655 11.6961 39.5345
3.14585 11.0114 39.7831
3.22049 11.0185 40.089
3.27756 11.2602 39.6668
3.20273 11.2839 39.8527
3.1975 11.2326 41.5564
3.39047 11.6375 40.7022
3.31226 11.8346 40.7277
3.21416 11.388 40.4812
3.1842 10.846 38.9775
3.17557 11.5209 41.6809
3.28383 11.3813 39.01
3.05433 11.0713 41.5168
3.28267 11.5423 40.2917
3.18332 11.3756 42.8403
3.35438 11.3389 40.8885
3.24577 11.3488 42.276
3.32876 11.2495 40.1242
3.18857 10.8202 38.3876
3.1411 11.1481 38.8932
3.09898 11.3141 39.9773
3.08349 11.3681 42.2426
3.29253 11.8047 45.879
3.67584 12.862 46.3094
3.57688 11.7244 42.5105
3.3965 11.9679 42.5686
3.37134 11.4444 39.157
3.05565 10.8819 38.1573
3.01491 11.191 41.1501
3.21242 11.4954 42.044
3.27129 11.5159 41.417
3.15295 10.9287 39.7285
3.15218 11.3717 41.7391
3.24516 11.2553 40.1693
3.13585 11.2341 40.8272
3.10059 10.624 39.5824
3.04231 10.7698 38.6704
2.94262 10.4344 37.7807
2.95151 11.0002 39.3599
2.96938 10.3752 37.6904
2.96508 10.7278 38.6918
3.01933 11.5809 41.3252
3.06185 10.6895 38.877
2.98309 11.345 39.6234
2.87126 10.6128 42.5321
3.19769 10.7022 40.4486
3.19417 11.0914 39.3879
2.94991 10.8142 39.4613
2.94489 10.1596 39.429
3.0714 10.9102 39.2353
3.01285 11.2293 40.7674
3.03319 11.021 40.1969
3.02023 10.702 39.181
2.98644 11.0487 40.6624
3.03052 11.0534 40.2937
2.96909 10.6547 39.4583
2.99489 11.071 40.6483
3.00573 10.6263 40.3883
3.03879 11.2207 41.5615
3.07784 10.6247 39.0662
2.96079 11.0273 41.2949
3.01134 10.3558 37.9515
2.86024 10.7737 40.4388
2.98348 10.6393 39.6468
2.97598 10.6534 39.7298
3.01361 10.9975 39.3193
2.88417 10.6243 40.3846
2.96661 10.7175 41.4997
3.07713 10.7665 40.0221
2.98178 11.015 40.4478
2.93641 10.6003 39.6029
2.97772 11.035 41.7599
3.021 10.6671 38.5569
2.83796 10.5127 39.9411
2.99368 11.4465 42.5278
3.11112 11.6161 42.8539
3.05846 10.8879 39.7084
2.86483 10.6145 40.4881
2.89043 10.6594 42.0032
3.07872 10.4325 36.5127
2.65785 10.0652 38.8736
2.87617 10.6387 41.2893
2.99383 10.808 41.366
3.00604 10.6373 38.715
2.86208 10.2628 38.8125
2.88764 11.2896 40.5619
2.89066 10.4905 40.3378
2.93171 10.4342 38.511
2.83952 10.6859 39.2764
2.83888 10.5027 39.8168
2.84587 10.5998 41.0063
2.98616 10.7452 39.8846
2.88042 10.6989 40.4838
2.93476 11.0173 42.4167
3.05484 10.9781 40.2681
2.82887 10.7627 41.3693
2.95885 10.7952 38.7372
2.76735 10.5258 40.1287
2.79081 9.73522 38.4303
2.88154 11.1889 41.147
2.90197 10.8554 41.3307
2.93627 10.9381 42.2296
3.02803 11.0476 40.7887
2.88985 10.2205 39.0922
2.81516 10.3531 38.8359
2.79132 10.1565 38.6642
2.77075 10.7075 41.086
2.85672 10.4906 39.4601
2.79569 10.1506 38.4495
2.74011 10.6558 39.973
2.78464 10.241 39.3276
2.82722 10.7054 42.125
2.9963 11.0341 40.8985
2.86979 10.4163 40.5619
2.86906 10.7096 39.2971
2.77003 10.6626 40.3531
2.8147 10.7197 41.9705
2.93467 10.8786 40.8014
2.76363 9.92646 39.693
2.8209 10.607 40.3735
2.84906 10.6684 40.3043
2.83273 10.8552 40.4521
2.7779 10.379 39.4374
2.77742 11.1394 44.3335
3.04304 10.502 40.6225
2.88958 11.2209 41.0345
2.81157 10.1816 40.8518
2.85408 10.6014 39.8158
2.78165 10.1521 37.5679
2.59158 9.94264 39.5669
2.78008 10.0232 39.0605
2.77318 10.9875 40.7929
2.75665 10.4244 40.3041
2.78339 10.4401 41.4922
2.84163 9.91944 37.4777
2.64735 11.0644 41.8917
2.81386 10.1677 40.5025
2.79014 10.0328 38.9951
2.72462 10.2199 38.6236
2.66774 10.1949 39.095
2.66957 10.3575 41.4916
2.83943 10.4464 40.9969
2.82068 10.8595 39.579
2.7004 10.2211 39.9956
2.76597 10.7714 41.2921
2.82572 10.4709 38.8107
2.65127 10.7429 41.0439
2.76566 10.1879 40.9062
2.79404 10.4284 39.0059
2.6734 10.2957 41.7242
2.84364 10.4331 38.0633
2.58352 10.2656 41.0818
2.77252 10.37 38.8065
2.62735 10.0378 39.9354
2.72307 10.5933 41.4773
2.79758 10.1107 42.6045
2.93366 11.0635 40.1563
2.69462 9.99357 39.3683
2.67372 10.4281 39.1219
2.61761 9.78048 39.6028
2.68367 10.0758 37.2061
2.55002 9.68337 37.4209
2.53424 9.84587 39.0739
2.63745 10.2948 39.917
2.69118 9.6035 39.73
2.72417 10.1033 38.402
2.62047 10.1964 39.8438
2.71216 10.2361 38.5416
2.61791 10.4167 40.4263
2.70657 9.89975 38.2025
2.57142 10.5647 40.646
2.70238 10.0449 39.4404
2.64357 9.70144 37.5465
2.54705 10.4215 42.1685
2.78502 10.0396 40.6322
2.7099 10.6767 40.2434
2.68801 9.9625 38.9822
2.63721 10.3135 40.2638
2.69611 9.95616 37.4306
2.49735 9.87013 39.4391
2.64217 10.4273 42.1552
2.81335 10.3913 39.7758
2.62888 9.94599 39.5666
2.64789 10.1768 39.7933
2.68031 10.6181 41.3928
2.73818 10.4921 40.5433
2.66279 10.1227 39.4816
2.64455 9.78642 37.3351
2.48249 9.99125 39.8235
2.59801 9.42596 39.068
2.62636 9.94169 37.9957
2.53343 10.0759 38.7151
2.59846 10.3806 40.1455
2.65364 10.0352 40.3408
2.69518 10.3839 39.5867
2.61223 10.1934 41.0106
2.71267 9.86377 38.1054
2.5085 10.0039 40.0704
2.64051 10.0047 39.7452
2.60752 10.1562 40.2497
2.64296 10.0493 38.747
2.58645 9.86982 38.3742
2.55115 10.2158 40.0684
2.60484 10.0076 39.4441
2.59502 9.6979 40.1279
2.67149 10.226 41.2092
2.73634 10.8638 40.8126
2.6534 9.9432 39.3782
2.62167 10.0727 38.8211
2.51808 9.49155 37.8815
2.52825 10.1116 40.7355
2.6507 9.42949 37.4879
2.47346 9.3071 38.2087
2.53144 9.77869 40.0898
2.64737 10.2173 39.3033
2.59731 10.4046 39.7579
2.58882 10.1596 40
2.59843 10.1643 42.343
2.80045 10.2673 37.1081
2.46186 9.84165 39.7735
2.6255 10.1273 40.0924
2.59452 10.2357 40.8064
2.65188 10.2866 39.5332
2.573 10.1343 39.5719
2.57048 9.89973 41.2541
2.67877 9.68998 37.6381
2.45 10.0407 39.7586
2.59236 10.1426 42.1152
2.74142 10.141 39.3781
2.59738 10.2101 39.5888
2.56759 9.94656 41.1169
2.69054 10.2503 41.2861
2.71101 9.8141 37.2211
2.42292 9.73894 40.9465
2.64261 9.91696 38.4795
2.49841 10.3227 39.6613
2.57675 9.93311 36.8003
2.38882 9.16925 37.9763
2.48745 9.76068 39.1109
2.55038 9.9549 39.7718
2.58201 10.0803 39.8453
2.5849 10.0909 41.7232
2.71035 10.2126 39.7024
2.57941 9.78489 39.3881
2.58012 10.1703 41.7018
2.72118 10.4527 39.4961
2.56879 10.1162 38.9832
2.53026 9.47702 43.2143
2.81005 11.0237 40.7003
2.62807 10.0593 40.283
2.61919 9.99589 42.1027
2.73782 10.733 40.9093
2.64453 10.1514 37.6514
2.4153 9.48065 40.918
2.63203 10.3201 40.6824
2.60045 9.96019 39.5289
2.57636 9.74521 39.4658
2.54966 10.1488 41.0297
2.67892 10.3277 38.9441
2.51964 10.3743 41.5488
2.68478 9.76478 40.1863
2.59003 10.2427 37.7349
2.40709 9.27752 38.8451
2.50854 10.0476 39.0914
2.51549 10.1488 39.5913
2.52186 9.97722 40.0504
2.56541 10.0583 39.9271
2.60429 10.0147 40.6403
2.63207 10.0868 40.0165
2.57481 9.79284 39.6871
2.53662 9.71239 39.1012
2.53243 9.92999 38.308
2.48478 9.85632 41.6342
2.69211 10.0989 40.7291
2.62851 10.5137 41.6556
2.66472 9.76417 40.3242
2.63589 10.2528 38.8848
2.51032 10.0289 39.7152
2.54872 9.86174 39.4454
2.55541 9.58317 36.9021
2.36386 9.73361 40.3279
2.60457 10.4945 40.9843
2.61713 9.9848 39.6799
2.53192 10.0494 40.7536
2.63439 10.3345 39.7805
2.54937 9.81391 40.054
2.56138 10.0508 39.9522
2.56269 9.79444 40.1468
2.60793 10.1386 40.0807
2.58771 9.66734 39.8913
2.55985 10.0248 38.5031
2.48699 9.72469 37.837
2.44166 9.89091 37.6954
2.42712 9.72762 38.4418
2.48119 9.49193 39.6189
2.52811 10.2363 40.395
2.61904 9.75313 39.2857
2.54575 10.0553 40.7788
2.65103 9.54654 38.8905
2.50082 9.62118 37.8772
2.45864 10.0692 40.3494
2.55922 10.037 41.6922
2.66982 10.2823 38.4937
2.46814 9.61203 39.275
2.51252 9.80954 39.792
2.53753 9.99319 39.6424
2.5611 9.73767 40.8926
2.6364 10.0589 39.44
2.50749 10.3913 41.8996
2.68196 10.6401 40.2757
2.62241 10.4216 41.9146
2.68407 10.3136 43.5825
2.78743 0 0