# pn-170911/RbIIR-56-USN3-1280-1959.psd
# Power spectrum* (dif=0,1,2) (really just |FT|^2)
# NOTE: only the first half! (symmetric)
# weeks: 1280-1959
# 3515 clock-days, 75 excluded
# PSD: 1441
2401.29 0.0697654 0.024197
32893.8 0.243736 0.013932
257553 5.79069 0.014289
11775.1 0.398724 0.014594
102145 7.91947 0.0148031
4421.12 0.401695 0.0139055
7294.31 1.10377 0.01455
2409.18 0.422383 0.0141444
3885.46 1.06657 0.0151533
1480.72 0.448773 0.0140772
1542.1 0.577065 0.0147454
1052.1 0.481045 0.0145237
1105.79 0.610878 0.0149829
834.004 0.532467 0.015234
834.969 0.641261 0.0157081
650.943 0.569024 0.01532
707.597 0.739177 0.0163052
550.223 0.625343 0.0153773
527.801 0.691392 0.0155807
489.253 0.701187 0.0159408
471.296 0.774707 0.016341
407.371 0.744424 0.0167213
419.091 0.846267 0.017233
387.115 0.854671 0.0171975
373.983 0.907685 0.0177384
358.833 0.937642 0.017186
350.842 1.00956 0.017416
333.835 1.02853 0.018458
334.408 1.13382 0.019144
311.609 1.12207 0.0190167
309.499 1.19827 0.0204488
289.868 1.18941 0.0203561
281.661 1.23395 0.0208611
266.986 1.26684 0.0217769
275.688 1.37502 0.0229009
265.431 1.42125 0.0228642
259.625 1.46629 0.0231758
248.562 1.50152 0.0243741
250.583 1.59094 0.0257171
240.74 1.62344 0.026733
233.234 1.65856 0.0273466
235.446 1.74301 0.0289802
233.041 1.79964 0.0293327
230.686 1.8858 0.0314483
219.355 1.88434 0.0318223
224.699 2.02469 0.0343927
214.281 2.00599 0.0355508
208.201 2.047 0.0369984
205.932 2.13651 0.0376053
193.78 2.08748 0.038912
199.917 2.2498 0.0415203
194.422 2.26921 0.042941
187.804 2.25657 0.0440802
186.271 2.38557 0.0457192
189.565 2.50572 0.0494741
189.634 2.57562 0.0519085
185.782 2.62286 0.0542282
182.777 2.67868 0.0568477
176.781 2.71289 0.0592713
178.155 2.81913 0.0626396
178.971 2.91106 0.0646768
175.069 2.99039 0.0693943
178.895 3.12016 0.0714512
175.906 3.17442 0.0745842
172.732 3.19771 0.0764496
165.954 3.16012 0.0788794
166.497 3.32789 0.0838899
157.575 3.24762 0.0839399
161.46 3.40423 0.0896489
163.852 3.57624 0.0969704
160.366 3.60761 0.101189
161.603 3.74538 0.104182
160.578 3.82785 0.109854
158.584 3.89042 0.112686
157.75 3.95661 0.118701
161.4 4.19159 0.126309
150.641 3.98922 0.127617
151.977 4.14334 0.131862
147.431 4.17103 0.136295
150.684 4.31146 0.145619
152.617 4.4731 0.151343
150.185 4.55371 0.158013
148.004 4.61541 0.162158
142.636 4.53213 0.16517
142.737 4.65473 0.171017
144.484 4.79018 0.177944
142.076 4.83597 0.185611
141.882 4.99156 0.196689
138.796 4.97153 0.198179
138.196 5.04656 0.205573
137.054 5.14703 0.215206
137.569 5.26628 0.221893
139.084 5.41585 0.234461
136.265 5.41382 0.236646
134.881 5.50477 0.245751
133.536 5.58328 0.254191
133.438 5.65616 0.26368
128.635 5.63086 0.268367
127.079 5.628 0.274626
133.274 6.03879 0.296282
125.621 5.8491 0.292814
128.356 6.07405 0.309358
122.587 5.91073 0.305418
125.458 6.16321 0.324303
120.177 5.99445 0.32332
119.098 6.11662 0.333759
117.459 6.12162 0.341195
116.589 6.26511 0.354087
118.091 6.36926 0.366166
122.821 6.75644 0.394396
118.446 6.67396 0.400498
118.675 6.79662 0.412676
115.101 6.65918 0.409778
116.084 6.8756 0.428596
115.052 6.93835 0.444179
116.563 7.15197 0.461562
112.47 7.00523 0.463068
116.955 7.40193 0.496584
114.749 7.40571 0.50371
115.288 7.60808 0.52761
107.385 7.15175 0.506625
112.086 7.64431 0.545952
114.886 7.9363 0.574373
105.297 7.43534 0.550514
110.576 7.84264 0.584124
109.019 7.90076 0.597566
109.367 8.07402 0.622132
104.094 7.73751 0.605855
107.769 8.16688 0.649969
105.345 8.14333 0.658964
105.811 8.28093 0.676141
106.475 8.53787 0.705417
107.494 8.68378 0.729596
105.195 8.67712 0.744005
105.937 8.81929 0.767005
102.728 8.75438 0.770728
100.505 8.64951 0.772178
104.044 8.97191 0.806933
102.114 9.02898 0.830503
102.488 9.19029 0.850726
98.5905 8.98092 0.851715
98.3989 9.03287 0.86984
97.6326 9.22206 0.900594
99.3525 9.4752 0.93263
100.547 9.64536 0.964868
96.6357 9.41824 0.947742
98.4225 9.75987 0.99453
97.1833 9.78877 1.02338
100.174 10.1929 1.06779
95.0903 9.78286 1.04304
96.8772 10.0638 1.08215
97.3027 10.2165 1.11413
95.9078 10.2802 1.13746
94.8271 10.2942 1.15462
95.2644 10.5103 1.19937
94.5342 10.5842 1.21798
92.8998 10.5324 1.22542
93.9339 10.7755 1.26675
92.1909 10.6777 1.27755
93.4611 11.0797 1.34264
91.8056 10.9136 1.33338
94.6435 11.3538 1.41084
90.2839 11.0461 1.38322
92.2007 11.3549 1.4439
90.8914 11.3207 1.45164
92.6976 11.7122 1.52066
91.491 11.6412 1.52525
90.9149 11.8568 1.57556
91.166 11.9405 1.60189
88.5585 11.7252 1.59815
88.8232 12.0023 1.64881
86.2784 11.7261 1.62836
88.3554 12.1627 1.70744
87.9512 12.3243 1.75649
85.3249 12.0022 1.72154
83.5429 11.9345 1.74118
89.3199 12.8296 1.88706
81.9649 11.986 1.79175
87.1042 12.8142 1.92842
87.1176 13.0044 1.9754
87.1702 13.0735 2.00777
86.6885 13.2114 2.04448
83.3184 12.7959 2.02174
84.9877 13.1831 2.07771
84.1046 13.4254 2.16356
80.8156 12.8072 2.08016
83.317 13.4201 2.19495
83.0903 13.4622 2.22479
82.0257 13.6121 2.29058
84.2457 13.9114 2.34503
82.6018 13.8799 2.37044
78.7666 13.3095 2.30469
79.5238 13.5337 2.34876
79.9629 13.8533 2.44551
82.4432 14.3335 2.54906
80.1724 14.093 2.52453
79.2144 14.0329 2.53891
78.7068 14.2279 2.61197
78.8245 14.3201 2.65337
78.6389 14.4629 2.70975
78.9461 14.6185 2.75311
78.96 14.8533 2.8419
76.9157 14.5629 2.79799
77.1959 14.7108 2.85959
78.7838 15.1137 2.96086
76.9896 14.8621 2.93297
77.1648 15.1395 3.01799
76.7936 15.2048 3.07669
76.6758 15.3868 3.13697
75.899 15.3405 3.15913
76.0461 15.4628 3.20275
74.5933 15.3998 3.23245
75.4513 15.6237 3.28931
76.454 15.995 3.41849
74.3844 15.7525 3.38318
75.1147 16.0259 3.48712
72.954 15.6809 3.43534
72.9014 15.9487 3.53623
74.0157 16.3237 3.64804
73.4327 16.3916 3.71721
72.237 15.9684 3.60594
73.3034 16.5728 3.79947
70.2252 16.0998 3.74313
73.1295 16.8447 3.94966
70.9486 16.3916 3.84972
70.7721 16.4972 3.90771
69.2086 16.1849 3.8655
72.6239 17.2944 4.1546
69.0839 16.7005 4.09776
71.67 17.2202 4.21063
71.935 17.5942 4.34911
69.764 17.2373 4.30736
71.117 17.7274 4.4782
69.4206 17.384 4.41684
67.5709 17.1975 4.43791
67.5892 17.3194 4.48426
68.6824 17.6397 4.58062
69.1181 17.8186 4.66526
68.3505 17.8165 4.70887
67.7864 17.7904 4.74683
67.4043 17.8762 4.77087
66.4942 18.0289 4.93627
67.5894 18.2394 4.98521
66.4372 18.2315 5.04798
65.5994 18.0117 5.01871
66.1807 18.3654 5.17918
64.7969 17.8905 5.0103
66.4578 18.7212 5.37009
65.7532 18.5043 5.25651
66.4273 18.999 5.50753
65.19 18.7082 5.43419
63.3573 18.4042 5.41125
63.9863 18.6139 5.50762
64.111 18.8739 5.61599
61.1808 18.1127 5.42719
62.5144 18.8617 5.74171
64.6685 19.4693 5.93813
63.7412 19.3657 5.96208
62.7594 19.0824 5.87544
64.3388 19.8413 6.19339
61.9714 19.1857 6.022
63.9994 19.9615 6.30506
61.3939 19.3576 6.16758
61.4153 19.5814 6.3041
59.8252 19.1055 6.18837
60.6738 19.7148 6.47182
62.9564 20.3793 6.65795
60.1892 19.617 6.48455
60.8582 20.0785 6.70689
59.2407 19.5832 6.56226
60.3315 20.2685 6.87005
59.498 20.0349 6.82414
59.1684 20.0988 6.92034
59.055 20.1958 6.9651
58.6143 20.1294 7.01846
59.0818 20.5268 7.22521
57.1867 19.6832 6.88676
59.4247 21.0274 7.44813
56.831 20.287 7.30197
58.1711 20.7292 7.4764
58.7859 20.9421 7.55209
58.1315 21.0044 7.67291
57.3309 20.8936 7.66145
55.3299 20.3858 7.5884
55.5318 20.6548 7.77678
56.9847 21.0999 7.89986
56.0977 20.9155 7.90911
56.8731 21.4552 8.13104
56.0194 21.2149 8.11778
55.5497 21.2488 8.2369
55.289 21.2341 8.26768
54.4794 21.0044 8.22842
56.2249 21.8703 8.56845
56.5059 22.2035 8.82008
55.7479 21.8917 8.69122
55.0694 21.791 8.73339
54.2356 21.556 8.66267
53.8906 21.7864 8.87328
52.3972 21.3122 8.79263
53.2232 21.4017 8.727
53.2614 21.8369 9.05327
52.7118 21.707 9.01706
52.062 21.779 9.14107
52.5045 22.0021 9.30691
52.3985 22.0021 9.2834
51.6195 22.0491 9.48555
52.2037 22.3764 9.64076
52.4794 22.4346 9.73041
51.2311 22.0639 9.62341
51.7856 22.6464 9.99138
50.3902 21.853 9.65046
50.695 22.0666 9.7219
51.8174 22.799 10.1199
51.0712 22.7343 10.209
50.9914 22.8488 10.2904
50.127 22.8556 10.5458
49.9105 22.4425 10.2556
50.389 22.899 10.5244
50.0183 23.0144 10.7086
50.9205 23.4477 10.8865
49.9656 23.0918 10.7795
49.7724 23.3277 11.0194
49.2993 23.0124 10.8556
50.1232 23.8565 11.4096
48.2611 23.071 11.1009
48.6247 23.2811 11.266
49.0576 23.5844 11.4846
47.959 23.3044 11.4707
48.4709 23.5141 11.5451
48.3319 23.4417 11.5195
46.5358 22.7629 11.2439
47.6687 23.8112 11.9115
46.0366 23.0017 11.597
47.381 23.6972 11.9496
46.3695 23.4636 11.934
45.9632 23.3255 11.9946
46.2547 23.5592 12.0718
47.1951 24.2859 12.5426
46.0803 23.826 12.4744
47.0068 24.2961 12.6403
46.6142 24.4136 12.8932
45.1784 23.7412 12.5707
45.0443 23.6767 12.5399
46.1577 24.6947 13.2514
44.8187 23.8805 12.8197
44.1116 23.8883 13.0103
44.6521 24.2481 13.2347
43.7484 23.7344 13.0173
44.3386 24.2579 13.396
43.9401 24.0432 13.3228
44.6854 24.6573 13.7549
44.9753 24.9285 13.9288
44.6416 24.856 13.9872
44.149 24.6448 13.943
44.2125 24.7832 13.9129
42.6588 24.4403 14.0725
43.4315 24.6333 14.0694
42.4976 24.4655 14.1843
41.9162 24.0179 13.9377
43.8378 25.5036 14.8675
42.9233 24.9187 14.5754
42.9104 25.2588 14.9586
42.5865 25.0575 14.89
41.7435 24.6028 14.693
42.3152 25.2427 15.1178
42.1903 25.2252 15.1289
42.7061 25.647 15.4443
41.4034 25.1077 15.2876
41.6393 25.3107 15.4731
40.6392 24.8024 15.3183
41.719 25.484 15.634
40.8985 25.3034 15.7565
41.7883 26.0892 16.385
41.2698 25.4798 15.9484
40.7953 25.4777 16.0414
40.3413 25.4067 16.1491
40.4907 25.5694 16.3014
40.1398 25.461 16.312
39.2993 25.1789 16.3126
39.3506 25.1227 16.279
40.287 25.5681 16.4245
38.5296 24.8353 16.1633
40.3498 26.4444 17.3566
39.2441 25.8886 17.2554
38.937 25.3256 16.7132
39.0099 25.5798 16.9233
38.2438 25.3239 16.8832
38.86 25.8989 17.3652
38.4665 25.8717 17.53
38.5223 25.7289 17.3151
37.201 25.3171 17.3545
38.4985 26.2428 17.985
37.9478 25.9935 17.9349
37.4351 25.6811 17.7898
36.4946 25.1349 17.5153
37.2676 25.7406 17.885
36.596 25.4806 17.8774
36.7636 25.6738 18.1262
36.2944 25.7435 18.434
37.2318 26.1753 18.5559
36.5871 25.9088 18.4995
36.0891 25.5707 18.349
35.3854 25.3781 18.3753
35.8616 25.8976 18.7984
35.5498 25.7055 18.8634
36.5047 26.2958 19.1245
35.7972 26.0793 19.1046
34.5842 25.527 18.991
35.5395 26.2961 19.5977
35.4298 26.1067 19.4867
34.6671 25.5449 19.1002
35.0456 26.0178 19.3738
34.669 26.3962 20.274
35.5893 26.6603 20.138
34.0884 25.7373 19.7034
34.7226 26.425 20.2978
34.7965 26.365 20.2221
35.3205 26.9444 20.6256
33.8832 26.0477 20.1034
33.8864 26.6 21.0203
33.5668 26.0636 20.5344
32.913 25.231 19.696
34.6016 27.3652 21.4934
33.8292 26.7736 21.2674
32.8503 26.0674 21.0211
33.7765 26.3703 20.8125
32.9891 26.2515 20.9156
32.0494 25.7795 20.8548
31.8408 25.7535 20.9805
32.6973 26.4673 21.4749
32.4139 26.5303 21.9006
33.6486 27.12 22.0166
32.6725 27.1832 22.6481
32.8068 26.7916 22.0497
31.6823 26.2473 21.9417
32.5647 26.8746 22.3473
31.0697 26.0403 22.0439
31.8904 26.5779 22.3196
31.8363 26.8281 22.653
31.4723 26.4199 22.2902
31.4891 26.9532 23.2331
31.5197 26.6083 22.6864
31.386 27.1486 23.523
30.657 26.1577 22.6484
31.3308 27.0779 23.6171
30.8926 26.4246 22.7919
30.1323 26.3452 23.1529
30.6012 26.6994 23.4962
29.7352 26.0087 23.0248
29.8697 26.2524 23.3216
31.0342 27.4921 24.3704
29.0837 25.5827 23.0564
30.3838 26.9322 24.0262
29.8743 26.8388 24.172
29.039 26.2943 24.102
29.3896 26.4371 24.0854
29.4761 26.3974 23.8204
28.8144 26.3328 24.2143
29.1112 26.7264 24.9066
29.3019 26.294 23.9999
29.2352 26.9927 24.8947
28.2611 26.0087 24.2164
28.6528 26.5343 24.8373
29.1925 26.9465 25.0544
28.4905 26.7217 25.3287
28.8624 27.0006 25.563
28.9512 27.1153 25.4811
27.6244 25.9914 24.8552
28.1782 26.6249 25.2508
27.6948 26.462 25.4904
27.739 26.412 25.4563
28.0162 27.057 26.2527
27.8888 26.8169 25.9902
27.57 26.6608 26.0515
27.4975 26.3297 25.3337
25.705 25.6287 25.9044
27.7409 26.7152 26.0978
28.0883 27.5793 27.1718
26.5798 26.275 26.2026
27.2413 26.8071 26.5468
26.1359 25.9276 26.0033
26.5774 26.7381 27.0792
27.5165 27.3688 27.5089
26.9515 26.9341 27.2006
26.5102 26.8203 27.3537
26.0577 26.3375 26.8681
26.6138 26.9205 27.3258
25.6707 26.1588 26.9802
26.5155 27.2916 28.0511
25.9366 26.9176 28.1998
26.2759 26.7622 27.5966
25.1541 25.8541 26.8442
25.1405 26.268 27.8328
25.681 26.4532 27.4481
24.9046 26.0511 27.3991
25.5219 26.9005 28.377
25.1291 26.7069 28.5438
25.384 26.8221 28.6399
24.9313 26.785 29.077
25.449 26.5537 28.1107
24.9487 26.7694 28.7357
24.8908 26.786 29.099
24.506 26.3802 28.6388
24.0184 26.0526 28.4411
24.0871 26.1563 28.8697
24.1409 26.2382 29.1183
25.1787 26.9914 29.2124
24.662 27.1953 30.0346
24.6685 27.0811 30.0159
25.0835 27.4249 30.2398
24.4348 26.9746 29.9295
24.1444 26.817 29.918
24.1194 26.9284 30.2189
24.0898 26.9914 30.3502
23.5818 26.5911 30.3983
24.0407 27.0008 30.4875
23.519 26.4881 30.009
23.14 26.4036 30.3171
23.2458 26.2983 29.8209
22.3844 25.8291 30.2004
22.3841 25.5038 29.5205
23.0271 26.5844 31.0197
23.4826 27.0938 31.3278
22.4628 25.9905 30.3583
22.32 25.9436 30.7338
23.2165 26.7713 31.0733
22.6576 26.5965 31.6491
22.9776 26.8533 31.5625
22.6528 26.6339 31.6162
22.5316 26.6198 31.4677
22.2137 26.504 31.7779
22.2353 26.3707 31.5967
21.8702 26.277 31.9086
22.082 26.2851 31.6817
22.7419 27.6086 33.5393
22.0366 26.34 31.9897
21.8282 26.3604 31.8982
21.7136 26.5536 32.4763
21.4409 26.3068 32.6405
21.9148 26.3337 31.9642
21.1149 26.1264 32.7677
21.8833 26.5059 32.3146
20.8559 25.9607 32.3844
21.4078 26.5859 33.103
20.9478 26.0161 32.4496
20.596 25.9252 32.8909
21.0084 26.4229 33.7238
21.2963 26.3976 33.4399
21.3479 26.3802 32.8694
20.3348 25.922 33.2873
21.1392 26.5077 33.2821
20.389 26.0408 33.315
19.9694 25.7809 33.552
20.6924 26.3847 34.0419
20.7318 26.3784 33.871
20.643 26.8059 34.7504
19.7941 25.3339 33.0063
20.1324 26.2706 34.5493
20.403 26.0334 33.6085
19.9264 26.1862 34.4825
19.6739 25.56 33.7013
19.9274 25.9225 34.0077
20.1014 26.4258 34.8982
20.0982 26.6494 35.3576
19.9947 26.48 35.3131
19.7999 26.1811 34.9176
19.9383 26.6359 35.7225
19.7506 26.5078 35.5741
19.7671 26.7864 36.3241
19.3037 25.7806 35.0793
19.6798 26.4947 35.8984
19.0947 25.6222 34.8928
19.0728 25.7376 35.2117
19.1161 26.1136 35.7314
19.3227 26.3221 35.8845
18.869 26.2158 36.3744
18.7208 25.5371 35.4645
18.942 25.8139 35.4276
18.8996 26.4933 37.1033
18.5142 25.4878 35.6222
18.846 26.3417 36.9263
18.506 25.5585 35.9757
18.4195 25.5182 35.7954
18.81 26.2322 36.2733
18.0861 25.7847 36.7081
18.051 25.3672 35.9339
17.9976 25.549 36.6091
17.8961 25.2655 36.0072
18.0216 25.7879 36.8992
17.8278 25.4986 36.9278
18.2607 26.1936 37.6812
17.59 25.1381 36.5215
17.993 25.7867 37.2914
17.537 25.2425 36.5857
17.3596 25.1747 37.0466
17.398 24.9622 36.4943
17.7745 25.6614 37.1636
17.356 25.59 38.169
17.951 25.7999 37.3127
16.9281 24.7567 36.1028
16.3663 24.6921 37.6259
17.2158 25.1021 37.4113
17.5433 25.8872 38.2071
17.0211 25.1941 37.55
16.7777 25.0135 37.5651
16.6925 24.8403 37.3963
16.8481 25.4564 38.6499
17.0065 25.3216 37.7973
16.5244 25.1799 38.553
16.7176 25.4707 39.0643
16.5144 24.7206 37.8266
16.6254 25.1223 38.2363
16.2568 24.6718 38.0647
16.8347 25.5819 39.1337
16.779 26.0222 40.2018
16.5687 25.3767 39.1009
16.0216 24.63 38.5878
16.6238 25.2707 38.5178
16.0875 24.8896 38.6672
15.7878 24.6718 38.8758
15.9379 24.755 38.9358
15.7416 24.3615 38.2206
15.7648 24.8641 39.4485
16.0408 24.7502 38.6384
15.8791 25.2048 40.1584
16.165 25.35 40.0761
15.5728 24.5677 39.2822
15.5269 24.3931 38.5606
15.2028 24.2486 38.723
15.1286 24.4154 39.8756
15.5938 24.7144 39.4019
14.8733 23.8562 38.8663
14.9663 23.8535 38.839
15.4527 24.8645 39.9001
15.339 24.8576 40.2333
14.6953 23.9213 39.7178
15.3115 24.775 40.4661
15.2899 24.6885 39.8839
14.8836 24.7536 41.0939
14.8997 24.1685 39.9451
15.1502 25.049 41.4705
15.0283 24.7564 41.1858
15.076 24.8632 41.1201
14.4031 23.7437 40.3014
14.9598 24.6911 41.0665
14.7452 24.3548 40.4706
14.2434 23.6467 40.2302
14.686 24.4634 40.6688
14.2177 23.8618 40.2228
14.3548 24.3201 41.6975
14.5701 24.2071 40.8261
14.1653 23.7299 40.4716
14.4927 24.613 42.1366
14.7903 25.0703 42.7792
14.4221 23.9627 40.6024
14.1232 24.2405 41.0505
13.8574 24.1654 42.1625
14.1167 24.147 41.6304
13.8273 23.8817 41.9077
13.8335 23.3061 40.4157
14.0308 24.0698 41.3717
13.8252 24.0436 42.0757
14.0645 24.4285 42.6074
13.9651 24.1105 41.906
13.7612 24.0933 42.5443
13.5452 23.3627 40.9472
13.7769 24.4592 43.0934
13.7777 24.0233 42.2869
13.6419 24.1031 42.5059
13.2342 23.4925 42.3045
13.2603 23.3811 42.135
13.4293 23.2894 41.0251
13.1286 23.7249 43.2
13.6288 23.854 41.9828
12.8959 23.168 41.9629
13.1363 23.2124 41.5657
12.9473 23.0995 41.4003
12.7241 23.1362 42.277
13.1169 23.5751 42.5305
12.9484 23.5809 43.0164
12.7355 23.1169 42.2847
12.7952 23.2452 42.3537
12.8211 23.468 43.0606
12.8695 23.4549 42.7661
12.6658 23.4294 43.4817
12.4168 22.6095 41.9917
12.2468 22.3102 41.3826
12.4212 23.2222 43.5704
12.4488 22.3715 41.1175
12.271 23.1216 43.662
12.6515 22.9776 42.0729
12.2809 23.2783 44.2148
12.4091 22.632 41.9481
12.2016 23.1677 44.0606
12.6514 23.6641 44.661
12.5449 23.2792 43.56
12.4045 23.4444 44.2459
12.2238 23.1942 43.773
11.7939 22.573 43.3071
12.0154 22.8866 43.8249
11.7215 22.2212 43.0584
11.8104 22.3841 43.4964
12.027 22.8418 44.0228
12.0868 22.7972 43.5513
11.9276 22.7626 43.807
11.8611 22.5746 43.3185
11.9891 23.4899 45.6134
11.6449 22.1828 43.6069
12.1486 23.3868 44.8066
11.4128 22.1396 44.0566
11.9558 22.9558 44.2595
11.5862 22.8462 44.9181
11.6326 22.5304 43.7231
11.2785 22.4742 45.151
11.57 22.3566 44.4537
12.0093 23.5158 46.0312
11.502 22.2603 43.2829
10.8275 21.5496 43.9949
11.4973 22.4844 44.4796
11.3503 22.4279 44.1326
10.9761 22.2605 45.777
11.443 22.1377 43.5636
11.1085 22.5955 45.6948
11.1203 21.8779 43.9681
11.0914 22.4024 45.5017
11.221 22.269 44.2716
10.8497 22.1818 45.9603
11.4028 22.7626 45.6827
10.9147 22.1157 45.448
11.0252 22.0848 44.8841
10.8633 22.0278 45.2199
10.8261 21.5742 43.8404
10.8339 22.4362 46.2268
10.7781 21.7917 44.8078
10.61 21.6174 44.945
10.9513 22.3673 45.8165
10.819 22.1039 45.6636
10.5464 21.7007 45.2731
10.8361 22.4103 46.3422
10.6763 22.0122 45.2182
10.3419 21.5722 45.3197
10.3883 21.5149 45.2876
10.3775 21.2554 43.9962
10.2389 21.5662 45.3589
10.4831 22.3154 47.3987
10.7543 22.3025 46.3028
10.2181 21.4999 45.8724
10.3559 21.5218 44.9339
9.91886 21.1624 46.0169
10.4284 21.829 45.8304
10.1079 21.7207 47.3101
10.4339 21.6795 45.5397
10.1304 21.6308 46.1853
9.93683 21.2927 46.393
10.0996 21.135 45.6825
10.22 21.7305 45.789
9.7396 21.1467 46.5051
10.0101 21.2535 46.2827
9.97959 21.1379 45.4845
9.8828 21.2877 46.3215
9.94308 21.3235 46.1964
9.90737 21.4251 46.1214
9.51714 20.3748 44.4969
9.62349 20.957 45.3609
9.45281 20.7428 45.8043
10.0077 22.2257 48.8462
9.66166 20.7315 45.9485
9.70382 21.3844 47.8539
9.91475 21.4381 47.1135
9.8259 21.4084 46.659
9.70105 21.5252 47.5107
9.53566 21.023 47.2766
9.30294 20.1045 45.0434
9.5651 21.4186 47.9572
9.54258 20.8676 46.5258
9.59942 21.1058 46.5938
9.55829 21.4233 47.5425
9.42865 21.1796 47.8214
9.36639 20.7972 46.7452
9.14209 20.4828 46.7989
9.43877 20.9783 47.0975
9.22941 20.7123 46.9419
9.37613 21.1582 47.1681
9.02071 20.7387 48.0363
9.14073 20.3208 46.7507
9.08442 20.3604 46.8861
9.3248 20.9846 47.6956
9.11774 20.6736 47.7774
9.38156 21.0705 47.4724
9.00485 20.5728 47.386
8.97832 20.2344 45.8463
8.75276 20.3954 47.6068
8.9959 20.7939 47.9744
8.80339 20.1737 46.9906
8.77835 19.9136 45.966
8.94559 21.1513 49.7406
9.00064 20.3588 47.8947
9.11505 20.9571 47.8192
8.84652 20.5947 47.5771
8.60332 20.0471 47.0289
8.74341 20.5849 49.0227
9.00243 20.831 48.1789
8.54807 20.1057 48.1633
8.63525 19.8147 46.7926
8.74082 20.6433 49.0198
8.99273 21.0347 48.2017
8.31253 19.9293 48.6299
8.72226 20.4342 48.2074
8.22003 19.1255 46.9696
8.80516 20.7624 48.8976
8.43114 19.8337 47.8846
8.50813 20.1239 48.195
8.46832 20.0958 48.227
8.48512 20.0499 47.9207
8.25309 19.5715 47.8803
8.6025 20.5854 48.7956
8.27726 19.5228 47.2228
8.2865 19.7793 47.7085
8.41645 19.9936 47.3835
8.20699 20.1763 48.7365
8.05772 19.3698 47.752
8.21641 19.7141 48.0015
8.31967 19.9515 47.7809
8.16746 20.4656 50.7316
8.26491 19.7714 48.5821
8.12018 19.3256 46.7263
7.83128 19.3242 48.1938
8.11473 19.6544 47.914
7.8688 19.2583 48.1544
8.11634 19.7042 48.1093
7.82567 19.1482 47.4816
7.96823 19.8555 49.5868
8.06127 19.7577 48.7465
7.86739 19.3336 48.4638
7.8587 19.1386 47.4249
7.75203 19.0691 47.3653
7.7788 19.6867 49.6577
7.97406 19.4532 47.9796
7.63671 18.8659 47.3749
7.61807 18.956 47.4084
7.57643 19.0746 48.3645
7.67253 19.0285 47.4502
7.57283 19.2691 49.4869
7.8384 19.5663 48.7328
7.51077 18.6418 47.5047
7.57364 19.1408 48.1451
7.46411 19.2331 50.5014
8.06982 19.9456 48.8741
7.37734 19.0077 50.1526
7.92966 19.7466 49.6642
7.53853 19.2237 49.4494
7.50139 18.7104 47.6241
7.37588 19.0995 49.7191
7.60098 19.2985 49.6314
7.47683 18.8007 48.5744
7.5234 19.1863 49.072
7.40857 18.8208 48.0088
7.25233 18.9061 49.3413
7.42374 19.0864 49.9929
7.47173 18.962 48.8715
7.31149 18.7093 48.4417
7.23693 18.9468 49.8785
7.47505 19.5286 51.3104
7.35661 18.729 48.7711
7.19922 18.7556 49.7955
7.44863 19.3488 49.9688
7.23258 18.9864 50.0617
7.19137 18.579 49.9339
7.3733 18.5027 47.8021
7.08166 18.5731 49.1895
7.2321 18.7796 49.4512
7.30057 19.3606 50.5235
7.17026 18.6772 48.6599
7.0154 18.7836 50.3431
7.13569 18.3258 47.4776
6.76224 18.4242 50.364
7.09243 18.4295 48.3663
6.88612 18.3617 48.8029
6.82566 18.2444 49.3901
6.97006 18.708 50.4199
6.99639 18.3679 49.5165
7.02714 18.5573 49.0866
6.79754 18.4549 50.3276
6.96971 18.3858 49.0195
6.72121 17.8731 48.258
6.70909 18.2972 49.885
6.81541 18.2738 50.2933
6.88202 17.9539 48.6105
6.8517 18.6751 50.3718
6.77085 18.1012 49.4558
6.71108 17.6177 47.36
6.62587 18.257 49.8994
6.66044 17.9201 48.4522
6.50201 17.9756 50.7148
6.8396 18.3407 49.6812
6.43052 16.8939 47.1843
6.62503 18.0381 48.9177
6.57956 18.099 50.4444
6.75963 18.1987 49.3909
6.54904 17.7151 48.1319
6.32174 17.5951 49.248
6.46653 17.6161 49.3782
6.56651 17.9223 49.351
6.45315 17.8609 50.7579
6.69288 18.1288 50.217
6.54617 18.035 49.7805
6.48794 17.7432 48.8319
6.35478 17.683 49.5072
6.35684 17.4531 48.608
6.30613 17.4018 48.0446
6.13478 17.0947 48.3173
6.19851 17.3276 48.9451
6.19421 16.9649 47.6426
6.1787 17.1863 48.2717
6.34115 17.7998 49.0457
6.13018 17.1583 48.188
6.04467 17.0528 48.2612
6.09017 17.4812 50.4425
6.32772 17.5587 49.0768
6.07868 17.0213 48.2159
6.0683 17.3378 49.8525
6.17211 17.2243 49.1426
6.17605 17.4886 49.2946
5.99736 17.1022 48.7193
5.90715 17.1545 51.3156
6.31447 17.2752 49.4602
6.16777 17.227 48.6245
5.99117 16.9301 48.393
5.90647 16.8101 48.6493
6.00859 16.8911 47.465
5.79023 16.8224 49.0036
5.92634 16.7641 49.3497
6.15057 17.3559 48.7348
5.93719 17.2899 49.7872
5.93843 17.2467 49.8878
5.87191 16.7174 49.008
5.94751 16.8343 47.8217
5.79002 17.379 51.3074
5.98004 16.8238 48.7366
5.84521 16.8192 49.1895
5.92309 17.2867 49.3186
5.69372 16.6642 49.9443
5.89659 16.9635 48.8667
5.78509 17.2074 50.9555
5.85553 16.9367 49.8291
5.74454 16.8166 51.1044
5.98711 17.0808 50.0681
5.87204 17.2866 51.5069
5.92393 16.843 49.1254
5.70904 16.9119 50.6308
5.78177 16.4829 48.1265
5.57685 16.6028 49.7538
5.70707 16.6709 50.1274
5.8594 17.101 50.7056
5.75331 16.4688 48.1365
5.56035 16.3285 47.3647
5.37873 16.0924 48.4232
5.45385 16.2134 49.2281
5.52764 16.2165 48.733
5.55702 16.5349 49.679
5.57112 16.3333 48.8255
5.48967 16.4963 50.267
5.63394 16.5682 50.3901
5.65065 16.4213 48.0213
5.42513 16.5675 49.1204
5.2869 15.8191 49.7118
5.55746 16.2021 48.0662
5.39677 16.3556 49.8386
5.56715 16.6817 49.669
5.41663 16.1742 48.6362
5.35183 16.0422 48.6166
5.23964 15.403 46.8404
5.17203 15.4396 47.3272
5.29082 16.1869 49.6312
5.48073 16.7015 49.9838
5.26609 15.7501 48.45
5.27868 16.0554 49.9271
5.47067 16.5636 49.7528
5.3199 16.3294 50.5284
5.32688 15.894 48.9619
5.27233 15.9717 48.9182
5.21206 15.9123 48.8974
5.21701 15.7371 48.4114
5.23577 16.0774 48.8114
5.07267 15.4253 48.1924
5.07245 15.272 47.677
5.07975 15.5681 49.0726
5.2583 15.8545 48.077
5.04989 15.5988 48.8211
5.14801 15.5732 48.4634
5.12823 15.8274 48.9158
5.07223 15.4574 47.3225
4.94498 15.4115 48.2431
5.08654 15.7818 48.5464
5.04008 15.621 49.0345
5.12644 15.8774 48.7875
4.95345 15.2929 48.5709
5.04803 15.7371 48.8385
4.90847 15.0219 48.4987
5.12743 15.9781 49.3139
5.00732 15.5328 47.7876
4.81606 15.1697 48.093
4.86472 15.3265 49.9298
5.10628 15.6409 49.4122
5.0944 15.7376 48.0939
4.83864 15.4011 48.8299
4.89364 15.6401 49.6951
4.96403 15.4154 48.5199
4.78696 15.151 49.8771
5.06474 15.3763 47.6317
4.77134 15.1837 47.6626
4.73213 15.1776 48.6204
4.76428 14.9177 48.577
4.84932 15.145 48.8805
4.87193 15.2941 48.7004
4.83616 15.0159 48.2295
4.83742 15.6116 49.7287
4.79459 14.9879 48.4056
4.83955 15.2051 47.8823
4.68084 14.8369 47.8663
4.70478 15.234 48.9663
4.75852 15.2205 49.3315
4.80686 15.2341 48.9653
4.69534 14.8554 48.5738
4.79514 15.1869 47.9269
4.60539 14.8073 48.7376
4.68324 14.6436 47.7447
4.66456 14.7087 48.1897
4.7609 15.4684 49.2363
4.67255 14.9251 48.8004
4.77477 15.116 47.5507
4.48723 14.5997 48.4384
4.68949 14.9794 48.3376
4.65422 15.0848 48.6992
4.60404 14.9611 48.446
4.52609 14.6593 48.6379
4.63595 15.0918 48.9075
4.51411 14.4421 48.5774
4.62233 14.8035 47.6134
4.45486 14.4173 47.0743
4.44408 14.6125 48.1748
4.49258 14.6082 47.908
4.42876 14.1239 46.2177
4.38185 14.5118 47.6719
4.46733 14.8234 49.8163
4.57598 14.6159 48.2441
4.45201 14.1882 47.8427
4.56611 15.0127 48.6479
4.45103 14.6809 49.8771
4.59075 14.3611 47.1734
4.42183 14.7056 48.9958
4.50715 14.5729 47.371
4.37159 14.683 49.2406
4.50103 14.4619 46.4978
4.24463 14.1523 47.5206
4.3429 14.3936 49.3204
4.48886 14.556 48.6862
4.42108 14.2585 47.5569
4.41396 14.7025 48.8403
4.41811 14.4168 47.0001
4.25195 14.6115 48.4838
4.2772 13.9933 47.6626
4.38039 14.8991 49.4767
4.35295 14.3032 48.0432
4.31141 14.354 47.7866
4.24766 14.2629 49.7061
4.4553 14.4911 48.5271
4.2791 13.8275 47.1364
4.26597 14.1265 47.5286
4.30811 14.6478 48.7205
4.35405 14.5416 48.0286
4.19836 14.442 49.9477
4.34204 14.1966 48.2462
4.28083 14.1358 46.7053
4.12932 14.2956 49.0737
4.26382 14.321 49.3921
4.2137 13.4843 47.3273
4.28204 14.2121 47.929
4.22022 14.1673 47.6521
4.20658 14.4131 48.7122
4.24966 14.3061 48.0637
4.16121 14.0259 47.487
4.04236 13.7772 48.2737
4.1729 13.9194 47.4405
4.08473 13.6771 46.7306
4.0633 13.8533 47.4526
4.08959 13.7409 47.0583
4.03977 13.9276 48.2035
4.11352 13.9451 48.3635
4.13025 13.9329 48.4432
4.15583 13.9211 47.067
4.02738 13.6959 47.5553
4.09647 14.0384 47.826
4.02784 13.762 47.9959
4.04722 13.7187 46.8515
3.94416 13.7013 49.424
4.22295 14.302 49.1991
4.09922 13.5235 47.5688
4.10548 14.0456 47.9099
4.02557 13.9453 47.2201
3.94322 13.6647 48.3444
4.07786 13.6385 46.8459
3.96525 13.8118 47.877
4.01546 13.966 49.1486
4.1139 14.0085 48.5252
4.02493 13.7256 47.331
3.91843 13.4181 47.0785
3.90303 13.4605 47.2769
3.98926 14.0999 48.4108
3.93364 13.3273 47.2659
3.94093 13.616 47.0881
3.88775 13.5618 47.8492
3.95489 13.6371 47.614
3.92004 13.7961 47.9887
3.91225 13.3841 47.595
3.93331 13.732 47.8634
3.93712 13.7393 49.182
4.03125 13.7905 46.7551
3.78718 13.2341 47.7494
3.9315 13.3596 45.717
3.69738 13.0889 47.4809
3.87975 13.5093 47.262
3.79251 13.294 47.7949
3.92125 13.4155 46.4365
3.75447 13.3781 48.641
3.95222 13.8811 49.5826
3.98142 13.6612 47.183
3.80406 13.3855 46.6856
3.75479 13.4195 48.1528
3.87576 13.6343 48.2766
3.82301 13.5278 49.5434
3.96752 13.7529 48.3987
3.84108 13.164 47.303
3.82489 13.5983 47.6955
3.73448 13.0493 46.686
3.71985 13.1321 47.4648
3.77786 13.3205 48.3585
3.83983 13.5221 47.896
3.78464 13.1677 47.9777
3.84254 13.4649 47.9783
3.77063 13.2974 47.6913
3.79844 13.4973 48.054
3.80009 13.5109 49.4696
3.91112 13.776 49.0083
3.87577 13.6961 48.8007
3.84754 13.9347 50.0193
3.85535 13.4014 48.0954
3.78091 13.3441 46.7968
3.62721 13.0724 48.9134
3.81036 13.5018 49.2778
3.91299 13.9058 50.5013
3.92235 13.9537 49.3339
3.86252 14.2647 51.8151
3.95245 13.929 50.5418
3.90593 13.7746 48.3634
3.66243 13.0741 47.7569
3.68824 12.9136 46.6485
3.62409 13.058 47.7551
3.69774 13.2486 48.116
3.69741 13.0847 47.2304
3.63527 13.165 47.1109
3.58659 12.9495 47.5509
3.62478 12.8984 47.8182
3.71214 13.4427 47.0975
3.55661 12.8299 46.7692
3.56368 13.0494 47.6114
3.5824 12.8898 48.196
3.66359 12.9363 47.163
3.57069 12.7543 47.2124
3.62384 13.2277 48.0795
3.62427 12.9121 46.8824
3.54027 12.8268 46.5296
3.48527 12.5834 46.5151
3.50104 12.645 47.302
3.5911 12.937 47.0815
3.54493 12.616 46.1529
3.43842 12.1999 44.8407
3.3888 12.4138 46.303
3.50186 12.555 45.3935
3.4088 12.4867 46.4613
3.52716 12.8358 45.5824
3.37257 12.3582 45.6801
3.42669 12.7555 47.2537
3.46889 12.4883 46.5045
3.46405 12.3861 46.4574
3.47793 12.3475 45.5185
3.40937 12.8881 48.4995
3.59848 13.0875 46.7846
3.44253 12.8517 47.2192
3.43776 12.3554 47.0147
3.49071 12.3559 46.1848
3.45365 13.0482 47.9721
3.531 12.5399 44.8512
3.30032 12.5054 47.3786
3.45533 12.4032 46.5133
3.439 12.7068 46.8151
3.43337 12.5439 45.2753
3.26478 12.1065 46.0939
3.3736 12.3903 46.32
3.40055 12.4683 46.4563
3.39436 12.299 46.1365
3.39768 12.5818 45.8824
3.3342 12.4344 46.7119
3.38691 12.4179 45.4598
3.2922 12.4366 47.8948
3.46274 12.4331 46.3863
3.38415 12.6093 46.7274
3.37686 12.4046 46.5176
3.33753 12.1952 45.7976
3.30671 12.2192 46.4164
3.36385 12.4145 45.9123
3.3102 12.1347 45.7433
3.28682 12.1008 45.0416
3.24519 12.067 46.6632
3.32138 12.059 44.7481
3.23041 11.8786 44.4474
3.21693 12.1836 45.7881
3.27286 12.201 45.4113
3.23584 12.0471 46.4313
3.32138 12.1137 45.6853
3.27789 12.1319 45.0485
3.19121 12.1329 46.1787
3.27648 11.8723 45.3634
3.25471 12.2588 46.9798
3.3595 12.345 46.975
3.35166 12.1186 44.3112
3.1581 12.0926 45.7874
3.23093 12.0215 45.6581
3.23001 12.0441 45.0112
3.17514 11.9553 46.0636
3.23013 11.789 45.9705
3.27974 12.0882 44.6436
3.1728 12.2974 46.9391
3.28675 11.8732 44.9632
3.19035 12.1542 45.5373
3.18316 11.8818 45.7844
3.23816 12.1025 45.4896
3.2202 12.1472 45.4686
3.18395 11.8924 45.7784
3.21562 11.9913 45.5208
3.19781 12.1643 45.3433
3.15611 12.1737 46.6953
3.21961 11.8942 45.0383
3.13606 11.6567 44.5016
3.12404 11.9467 45.7165
3.16868 11.6989 44.9169
3.12238 11.796 45.9744
3.20355 12.084 46.591
3.22665 11.9385 44.7304
3.12654 11.8723 45.9032
3.16954 11.796 44.5376
3.06929 11.5899 45.1656
3.15076 11.8437 45.1108
3.14829 11.9942 45.9853
3.19031 11.8404 45.3217
3.15208 11.9183 45.4485
3.11916 11.9526 44.8474
3.07939 11.7552 45.8934
3.17448 11.9815 45.4028
3.11952 11.6707 45.049
3.10942 11.6948 45.316
3.12337 12.0145 45.256
3.07898 11.6315 45.5711
3.12658 11.7871 45.1685
3.07948 11.4457 44.7487
3.08999 11.6605 44.2917
3.02632 11.3021 44.2519
3.04311 11.7819 45.7044
3.14021 11.799 44.4979
3.02222 11.7684 45.1315
3.05244 11.2894 44.653
3.05766 11.7281 45.9977
3.1385 11.746 44.0012
2.9704 11.2276 44.4988
3.05301 11.5097 44.1295
3.00308 11.5947 43.7516
2.96667 11.4781 45.0585
3.05433 11.7147 43.885
2.97676 11.3032 45.1988
3.09688 11.7909 43.4091
2.90924 11.2374 45.3159
3.0699 11.5824 45.0598
3.0338 11.4594 44.0213
2.99161 11.4124 43.0377
2.9078 11.7278 45.8061
3.06762 11.5824 45.886
3.07917 11.2998 43.2342
2.91081 11.2152 45.0146
3.05014 11.4469 44.3744
2.987 11.4385 44.5978
2.99022 11.3551 44.852
3.01847 11.3553 43.7573
2.9545 11.5171 44.4239
2.98337 11.4864 45.8982
3.09548 11.6797 44.7107
2.999 11.393 44.2231
2.97687 11.5308 44.3099
2.94788 11.4808 44.7241
3.00409 11.6667 45.2034
3.00038 11.4392 45.5424
3.04554 11.7578 43.898
2.9068 11.4727 46.4326
3.07165 11.5296 45.3877
3.04614 11.6273 44.0978
2.89658 10.6973 44.105
2.97096 11.3499 43.7987
2.92206 11.4955 45.424
3.01122 11.4506 43.5956
2.85446 11.1776 44.681
2.96882 11.2101 44.8587
2.98237 11.8243 45.5188
2.99917 11.284 43.905
2.91695 11.1622 43.0079
2.86666 11.4007 44.5534
2.92885 11.2723 45.0227
2.97803 11.7248 45.7262
3.00154 11.4184 44.5506
2.94907 11.3305 45.0884
2.99034 11.7321 45.0187
2.93011 11.0818 43.8662
2.9009 11.4597 45.0428
2.96835 11.376 43.7176
2.87768 11.2292 43.9113
2.89294 11.3041 44.0341
2.89323 11.6113 45.9699
3.0156 11.4164 45.1683
2.96186 11.619 46.1903
3.02782 11.2793 43.6536
2.88026 11.4144 44.2956
2.87856 11.1858 44.4861
2.91551 11.4942 44.9437
2.93256 10.9972 44.9137
2.95588 11.4047 43.5024
2.8542 11.0332 44.0715
2.88827 11.6138 44.9165
2.91409 11.2887 45.3826
2.96521 11.4218 44.6951
2.91146 11.3812 45.3626
2.96018 11.4663 43.9107
2.85054 11.0941 43.9117
2.85936 11.0816 43.8867
2.85572 11.1244 44.3879
2.89694 11.1555 44.3217
2.90655 11.4473 44.5662
2.89136 11.0558 44.0347
2.87268 11.0486 42.9916
2.80328 10.8387 43.7991
2.83386 11.2022 44.9233
2.91498 11.3374 45.0008
2.92189 11.1741 44.236
2.85025 11.092 44.1047
2.87175 11.0857 45.0563
2.92853 11.242 44.5473
2.90573 11.5939 44.9697
2.91613 11.1433 43.553
2.83334 11.1565 44.0637
2.86539 11.3688 44.3725
2.86145 11.054 45.0656
2.92351 11.0665 43.7877
2.84832 11.3342 44.5462
2.87949 11.2287 44.682
2.90617 11.3092 44.341
2.86185 11.4224 44.6203
2.85039 10.9357 44.184
2.85932 11.1247 44.7943
2.87532 11.1677 45.612
2.9346 11.6402 44.5393
2.86463 11.1889 44.6435
2.86356 11.2002 45.0421
2.9071 11.5194 44.4248
2.84813 10.9561 44.0944
2.84441 11.0425 43.6872
2.81671 11.1131 44.7596
2.88308 11.1224 43.7036
2.79959 11.1929 44.6783
2.87708 10.8457 43.9169
2.82324 10.9183 42.9922
2.77658 10.9643 44.0604
2.83602 10.8705 43.8433
2.8357 11.5033 44.5354
2.85094 11.4365 45.0528
2.8858 11.1419 44.9854
2.89395 11.2859 44.8498
2.88296 11.4315 45.347
2.90767 11.0849 44.1742
2.84083 11.2782 44.6875
2.85748 11.0756 44.012
2.81795 11.1395 43.4342
2.78384 11.0944 43.7592
2.79025 11.2014 46.2211
2.95283 11.1733 42.8635
2.74132 10.9974 43.9811
2.839 11.3737 43.9711
2.81327 10.7192 43.0178
2.76114 10.7782 43.8805
2.8063 10.868 44.3637
2.82543 11.2222 44.8658
2.87075 11.0573 42.3712
2.67258 10.7862 43.9874
2.81151 10.9951 44.3842
2.85578 11.0894 44.5924
2.85473 11.0243 43.6327
2.79568 11.1057 44.2066
2.84108 11.0022 43.2917
2.76075 10.8879 44.3947
2.84551 10.8474 43.769
2.81212 11.066 43.9526
2.79955 10.8169 43.7591
2.79832 11.1104 43.7157
2.78466 10.5796 42.7242
2.73486 11.1304 44.2506
2.81462 10.9875 42.5114
2.71505 10.8229 44.3504
2.82974 11.1494 43.2816
2.77358 11.0216 44.2166
2.79413 10.9079 43.5815
2.76598 10.932 43.6769
2.77744 10.9476 44.333
2.82987 10.9765 43.2878
2.76049 10.8639 45.2392
2.87833 11.2549 42.6779
2.73022 10.7998 44.3124
2.82741 10.9757 44.9758
2.86478 11.3944 44.3419
2.83484 10.9907 44.9137
2.85461 11.1346 43.3205
2.75375 10.8011 43.5989
2.77255 11.4299 45.3437
2.89485 11.085 44.6245
2.85306 11.2165 44.7462
2.86083 11.1265 45.488
2.90101 11.2874 44.5054
2.84506 11.2559 45.2023
2.88007 11.1642 44.8344
2.87831 11.5429 45.2956
2.88001 11.1521 45.1477
2.86628 11.5453 46.7929
2.95008 11.9294 47.8243
3.04587 12.0052 49.2372
3.11136 11.8056 45.5628
2.89588 0 0