# pn-170911/RbIIR-av-KOKB-1280-1959.psd
# Power spectrum* (dif=0,1,2) (really just |FT|^2)
# NOTE: only the first half! (symmetric)
# weeks: 1280-1959
# 99 clock-days, 0 excluded
# PSD: 1441
521.259 0.101906 0.0355276
35908.6 0.888836 0.0418766
126594 2.5952 0.0437077
23331.1 0.780163 0.0513517
38946.3 2.90035 0.0528058
9187.63 0.716234 0.0444921
6636.39 0.874669 0.0518041
3285.37 0.557315 0.045771
5363.51 1.41205 0.0556571
2564.78 0.81262 0.0461725
4352.03 1.89364 0.0495304
1810.48 0.745751 0.0540548
2170.79 1.07116 0.0419494
1597.73 0.836694 0.0525401
2238.23 1.91012 0.0651676
1118.31 0.855428 0.0389107
2826.75 3.17507 0.05166
1154.11 1.11098 0.0640575
2283.17 2.96665 0.0474479
1233.42 1.39524 0.0525129
1787.1 3.0852 0.0406329
1106.64 1.63527 0.062951
1566.6 3.24603 0.0542813
826.292 1.46762 0.037474
1749.25 4.14766 0.0679599
1088.97 2.40381 0.0730087
1281.2 3.78144 0.0442024
970.741 2.64591 0.06897
1168.56 3.83479 0.0635918
649.008 1.97096 0.0620071
1443.56 5.40938 0.0652528
650.056 2.61517 0.0624411
1119.9 5.08767 0.0910876
697.785 3.21545 0.0504028
887.83 4.22349 0.0539884
601.675 3.07605 0.0855347
1032.09 6.23791 0.0746559
723.867 3.93945 0.0585345
713.756 4.79686 0.0794429
681.162 4.16905 0.0818935
734.791 5.33236 0.0873644
593.884 4.08965 0.0544399
618.923 4.96065 0.0864327
626.691 4.77086 0.114154
642.89 5.65867 0.0936231
504.594 4.40311 0.0876077
672.28 6.39646 0.130765
454.289 4.36167 0.103583
704.447 7.38931 0.124199
488.324 5.12377 0.113542
571.91 6.62721 0.142801
601.338 6.92456 0.134146
594.81 7.16545 0.156031
444.159 5.68107 0.116904
479.151 6.67916 0.124435
508.121 6.6362 0.134697
721.779 10.8375 0.199522
564.616 8.11939 0.189833
566.54 8.40297 0.182923
558.431 8.26894 0.166362
532.595 8.77557 0.209529
383.977 6.26093 0.157771
435.988 7.8794 0.175328
430.127 7.54674 0.189578
421.552 8.14037 0.213349
374.348 6.99938 0.195571
548.577 10.8708 0.247643
299.743 6.12831 0.192891
397.097 8.58598 0.212465
430.585 9.12439 0.269608
365.641 8.07111 0.253086
406.716 9.51549 0.268109
294.104 6.62945 0.202974
342.237 7.99777 0.251295
300.366 7.46157 0.208808
408.632 10.392 0.330014
373.824 10.3771 0.30339
284.408 7.60595 0.264693
375.379 10.5283 0.375279
330.983 9.58825 0.313179
438.999 12.3059 0.364958
232.955 6.95919 0.280588
358.029 10.5268 0.426989
286.638 8.68764 0.347539
373.206 11.7006 0.435259
314.801 10.8 0.443398
300.128 9.8931 0.397891
286.271 9.95453 0.434358
309.308 10.7118 0.41015
254.655 8.58536 0.411427
312.831 11.6327 0.46841
255.412 9.45779 0.40754
324.946 12.438 0.580349
218.591 9.10638 0.478946
284.684 11.3526 0.548705
301.983 12.5797 0.622616
368.058 15.7184 0.761917
223.925 9.75345 0.481542
270.039 12.0969 0.623309
260.657 12.5408 0.620257
276.275 12.5482 0.601837
238.577 11.0093 0.520977
329.691 15.9097 0.862333
232.485 10.9352 0.605514
291.971 15.0365 0.863369
216.566 10.3467 0.575897
287.921 14.7782 0.930781
230.436 11.3672 0.655326
203.121 10.3933 0.640609
233.613 12.763 0.785382
229.001 13.1103 0.84955
227.784 12.6443 0.759221
207.313 12.1824 0.865773
199.871 11.8817 0.740869
211.977 12.1125 0.823131
207.74 12.7772 0.851212
222.2 13.0558 0.953913
200.831 12.775 0.808843
233.902 14.74 1.04599
175.598 11.5646 0.800135
236.734 15.2708 1.09544
185.677 12.4502 0.891478
184.311 12.683 0.974052
219.339 15.0212 1.12655
250.863 17.1397 1.3163
241.377 17.4584 1.36
216.174 15.1729 1.12802
184.554 14.3917 1.11511
188.019 13.9592 1.18444
196.48 14.7357 1.13664
150.353 11.5354 0.958556
145.903 11.6897 0.996604
181.916 14.4876 1.20903
198.206 16.1701 1.39531
163.748 13.1151 1.15786
185.292 15.7505 1.40642
182.449 15.9274 1.58781
189.613 15.9881 1.51196
215.546 19.3154 1.81192
191.87 16.8268 1.5921
178.354 17.0731 1.6763
178.926 16.7447 1.68779
177.225 16.8188 1.61633
187.815 17.8691 1.78168
172.038 16.8421 1.68587
123.577 12.5325 1.3656
154.031 15.7298 1.64194
139.573 13.9757 1.51224
136.594 13.3517 1.42789
145.945 14.7976 1.54948
192.261 20.8245 2.19461
181.785 19.8119 2.1389
142.986 15.5833 1.72244
184.44 19.705 2.14538
116.52 13.0205 1.43879
158.211 18.3557 2.02278
131.15 15.2932 1.75566
147.455 16.0941 1.88736
147.312 17.5656 2.05891
118.001 13.7696 1.75142
140.618 16.0832 1.97765
112.968 13.4713 1.68858
124.872 15.6724 2.07243
121.784 15.3968 2.09642
107.821 13.2944 1.65221
124.299 16.0789 2.1603
140.566 16.7037 2.19331
111.084 14.2938 1.97559
113.761 14.401 1.86631
137.547 18.1702 2.38437
117.299 15.3057 2.04564
145.143 20.1858 2.80876
125.72 17.5916 2.5765
119.314 15.7848 2.25273
105.535 13.8475 1.96689
141.608 20.3578 3.11637
112.657 16.1424 2.43336
118.046 16.262 2.29923
124.989 18.1729 2.63644
101.778 14.5182 2.09501
104.763 14.9338 2.17647
95.4041 14.4181 2.2397
126.707 19.3036 3.0526
90.3369 14.2844 2.30456
118.527 17.9317 2.74949
94.8051 15.3921 2.7166
119.212 19.12 3.02064
114.362 17.6656 2.94957
113.4 19.1829 3.30739
98.3193 15.0947 2.45693
106.937 18.2954 3.2701
106.895 18.148 3.21873
127.257 21.225 3.50348
114.375 19.0347 3.36666
134.058 22.4311 3.74257
91.5026 16.5485 3.0599
88.9679 16.4932 3.06652
80.2215 14.8348 2.68114
110.265 19.0486 3.53897
123.847 22.3118 4.16324
120.161 22.0267 4.22535
108.671 19.3623 3.66575
107.986 20.2639 3.69542
90.8623 17.0529 3.29685
78.974 15.5157 3.00694
86.5791 17.0328 3.48985
88.9281 18.5569 3.68273
87.3796 17.6344 3.71786
75.5205 15.9825 3.4252
93.2415 18.0749 3.90611
91.6393 18.9689 3.86888
91.786 18.297 3.90702
82.5003 16.9416 3.4694
105.636 21.6702 4.72886
87.7457 19.017 4.20845
90.786 18.6248 3.98198
86.1448 18.7277 4.23597
97.1322 20.2253 4.27998
79.9421 17.5349 3.94161
70.6582 15.7372 3.53584
65.5791 14.3522 3.47628
71.5963 16.0221 3.56852
91.0393 20.6709 4.72899
97.0961 21.3758 4.96921
92.1125 21.063 4.65484
83.8526 20.4172 4.96623
83.9486 19.7022 4.85708
80.6145 18.9193 4.53545
75.0142 18.5115 4.48763
87.8009 19.9604 4.66574
83.3731 20.1523 5.00117
85.8714 21.8561 5.72814
69.7233 17.7107 4.61627
79.0431 20.075 5.35694
86.1432 20.5693 5.17182
84.9713 21.0172 5.43486
84.9658 21.2704 5.35113
79.4678 19.7905 5.05363
57.3347 15.1985 4.03274
77.2748 20.4286 5.49344
62.0874 17.2706 4.76988
79.5562 21.0138 5.46566
86.2441 23.1144 6.23778
75.766 20.1607 5.59569
69.5661 19.088 5.20797
74.686 20.482 5.77075
77.5784 21.0711 5.77821
72.332 20.3788 5.73032
70.7599 18.906 5.18095
62.1918 17.9716 5.17371
60.054 17.5102 5.11472
62.2383 17.6249 4.98671
65.328 19.619 6.03322
72.5044 20.3048 5.96508
71.2232 19.638 5.62793
57.7854 17.6375 5.42647
68.3663 19.7597 5.95752
74.8969 22.2217 6.76499
70.0789 22.5681 7.39295
65.5356 19.6602 6.20816
69.277 20.6126 6.22058
68.0654 21.0985 6.86431
66.7597 19.6468 6.1556
67.479 20.524 6.30383
53.1752 16.9015 5.61395
55.6741 18.2113 6.34662
67.3926 20.9728 6.46405
69.7964 24.1336 8.1368
64.6181 21.5566 7.14036
63.6543 20.0766 6.6991
49.1825 15.8566 5.29399
62.2495 20.2692 6.57712
60.6345 19.9923 6.89974
55.2674 18.4833 6.64258
65.3296 22.1831 7.56237
53.4308 17.1931 5.75427
56.4581 19.9707 6.95876
53.7716 19.2033 7.2835
61.1387 20.5443 6.93448
65.2634 22.4998 8.02322
53.6459 20.1389 7.80382
57.4884 19.9974 7.27228
52.2276 18.4539 6.87828
60.2074 21.5916 7.77302
43.6576 16.2423 6.49052
60.7123 22.6855 8.67358
55.6393 20.5853 7.84883
54.0428 20.1226 7.97532
80.8277 29.9159 11.1269
51.1594 18.5403 6.99492
65.482 25.161 9.76594
50.2782 18.6545 7.17062
46.5269 17.28 6.83241
49.73 19.2652 7.8185
46.3285 16.9053 6.10441
48.1022 19.2034 7.62168
58.8095 23.6082 9.71591
52.1646 20.9796 8.33268
46.3766 18.246 7.63651
48.8543 19.1663 7.79466
50.0827 20.1142 8.29847
41.0795 16.7801 7.22846
49.5238 20.7031 8.83633
44.7104 18.3023 7.78553
54.8398 22.5702 9.67445
59.513 26.526 11.4102
58.964 23.1752 9.42784
54.3193 22.8323 9.64104
49.1072 21.5623 9.7413
49.9524 20.9447 8.9488
44.138 19.6851 9.07843
53.1293 22.1978 9.65961
49.5114 21.5985 9.64813
52.3329 22.559 10.3592
39.6677 17.8065 8.19069
40.7472 19.0557 9.05053
42.3634 18.3078 8.26924
50.9349 22.3851 9.59965
52.5648 23.6844 10.6805
48.4184 22.6464 10.3646
46.1582 21.7289 10.4251
45.7665 20.6259 9.46187
40.3354 19.6289 10.1291
56.3743 24.9524 11.7298
40.7047 19.8757 10.0754
47.6152 22.5457 10.8772
55.8363 25.6911 12.5834
53.12 24.7194 11.2747
40.6678 20.1218 9.93856
39.0596 20.2523 10.2798
36.6429 17.7721 8.49607
41.5509 21.685 11.303
42.5018 20.6591 10.2164
49.1354 24.2496 12.4397
40.6791 20.2696 10.0396
42.4256 20.7887 10.194
43.2795 22.8943 12.2153
44.3108 22.7063 11.8224
40.8054 21.4317 11.6995
38.6246 19.2389 10.1893
37.5199 18.4125 9.47059
39.5508 20.9275 10.8259
35.79 19.5994 10.0167
36.3876 18.9721 9.69009
39.8384 21.6471 12.1271
41.5921 21.854 11.2187
35.5955 20.5535 11.411
37.1007 20.1924 11.366
39.5008 21.2895 11.288
38.1505 21.166 12.7127
39.1293 21.2931 11.5998
38.5525 20.299 10.7163
41.3446 22.6242 12.2217
41.8297 24.2343 13.9573
34.9672 18.9853 10.4835
36.1385 20.8437 12.376
34.8662 20.0335 11.9332
47.4908 28.0434 16.0507
41.2362 22.1025 12.3816
34.0264 21.2167 12.7215
36.3928 19.927 11.8654
37.1416 20.1748 11.4102
40.3313 22.9298 13.132
32.9059 20.241 12.8328
36.8609 20.717 12.4323
33.5634 19.6287 11.4913
33.2139 19.4415 11.9352
32.9542 19.1761 11.4028
39.0409 24.31 15.1884
30.3485 18.6893 11.7539
29.8136 16.6792 9.34795
32.1809 20.4808 12.7971
34.5628 20.9737 12.6371
39.2694 25.4591 15.8431
30.3043 18.4728 11.5463
38.5382 24.725 15.8272
30.4217 19.7078 12.7316
35.8514 23.2522 15.2189
31.1133 20.1415 13.2554
31.8817 19.7256 12.5122
34.7955 23.6741 15.3231
28.6282 18.0541 11.8743
35.7968 22.1036 14.4806
38.7865 24.3236 15.4128
45.9998 31.7213 21.396
33.6866 20.1936 12.6937
29.9451 19.4461 13.5454
33.655 20.7246 13.5867
30.9937 20.2316 13.9262
35.2751 22.7215 15.2153
28.8514 18.8534 12.4133
27.8883 18.5333 12.9898
26.0839 17.622 12.6298
28.9673 19.1768 12.6402
27.0089 19.3001 14.0857
32.7975 21.5858 14.8823
28.0703 18.6239 12.854
27.9598 19.0587 13.4592
28.7927 19.591 13.5494
32.653 23.3137 16.2527
34.8759 25.6907 19.2566
29.1659 20.6505 14.999
39.6077 25.9423 18.0699
38.2236 27.3715 19.6809
24.7847 17.2036 11.992
30.2274 21.6169 15.7727
25.9947 19.4954 15.1184
32.0899 22.6722 16.1178
27.3219 20.865 16.0301
24.5152 17.7331 12.751
26.446 20.1533 15.2275
28.9494 22.1872 17.4761
32.7678 22.2527 15.7643
30.9889 24.7442 18.354
23.6759 18.1566 14.8156
27.8513 19.7536 14.8557
27.5639 20.2585 14.952
24.366 19.1387 15.3395
23.2702 18.5392 15.5434
28.4566 21.5594 16.3061
22.3914 17.2659 14.1363
27.6104 19.5004 13.8447
28.7048 22.7797 18.1504
25.6697 19.7756 16.0702
28.505 21.6021 16.9321
24.9645 18.6462 14.087
24.2228 20.0284 16.1638
24.9639 20.8869 17.2773
27.1312 22.2245 18.2628
23.8252 19.0847 15.8545
23.4507 17.6577 13.6021
25.6077 21.6247 17.5306
22.8128 20.0998 17.7807
25.4703 19.9246 17.1309
27.906 20.9087 15.4541
26.4224 23.7635 20.4066
28.7229 23.491 19.1046
23.4601 19.4715 16.4022
22.92 19.0541 16.056
24.2025 20.1559 17.011
19.0359 15.9559 14.8998
25.5549 20.5709 17.2178
33.4349 27.9898 22.4917
23.4586 19.0881 15.4051
18.1026 18.0968 16.4042
22.7253 20.0964 18.3386
23.3881 21.2179 18.6594
18.9992 16.2118 14.3732
21.1621 18.1376 15.9903
22.8232 20.5592 18.2649
22.9162 19.1324 18.2376
26.8902 22.5884 18.3929
21.2989 19.4475 18.233
24.2822 22.1473 20.2472
24.695 22.6224 21.6968
27.486 26.9368 29.1913
65.4773 54.6928 40.8397
20.2919 19.8521 19.5652
24.8853 21.6286 20.2336
24.8259 22.4331 20.1503
26.9415 24.704 22.3261
17.0304 16.0391 15.9013
21.1422 18.3926 16.8043
22.6124 21.3498 19.7173
24.1687 22.0455 19.2855
19.5782 20.159 19.1093
21.325 20.1235 19.3929
23.8723 22.4768 22.033
23.5092 21.3308 20.7004
26.0923 24.7614 23.1036
25.3387 23.1121 21.1082
23.036 22.6192 21.2634
19.7325 19.4734 19.6273
22.2741 22.5056 22.352
19.3905 18.9202 19.458
21.9539 20.622 20.1097
23.1733 22.8197 21.8781
18.6898 19.726 20.5581
20.2527 20.82 21.7629
22.7459 21.5804 22.0633
29.7663 27.6665 25.2272
23.8754 22.2851 20.3974
22.0563 24.3169 25.9555
26.7166 26.438 26.3418
20.2582 19.4026 20.33
25.7628 24.2283 22.873
22.2991 22.5734 23.1084
23.6825 24.2087 24.321
20.9447 23.1809 24.7473
18.9133 19.2156 19.571
16.5687 18.6578 20.9071
18.0533 17.0199 18.7063
23.5123 22.5866 21.8943
19.7912 20.2214 20.0752
17.4305 20.2543 23.0172
23.943 25.3346 25.0114
20.5399 22.147 24.0082
23.436 23.159 22.8048
17.1646 19.3327 20.602
16.1966 17.8957 20.0504
18.8454 20.2472 22.6588
19.2022 19.843 21.2541
19.1147 20.8447 23.3753
19.0732 19.8802 21.4994
17.3821 18.6821 20.9957
20.5119 21.6069 23.0013
19.8534 21.4277 22.483
15.4984 17.1599 19.8531
19.4649 21.5959 23.9896
23.2996 26.0662 27.2884
16.8207 18.7667 21.4511
17.9611 20.5989 23.7197
22.24 24.8168 28.2586
19.6381 20.4806 22.3949
17.29 18.6802 21.1972
18.1977 18.9514 20.259
17.0176 20.0961 22.9305
18.7082 23.493 29.3509
21.4095 21.8127 23.218
16.9222 21.0432 25.431
18.3406 20.4276 24.3009
25.3035 29.522 31.8383
15.0191 19.4601 26.6313
19.6429 19.5005 20.3395
15.146 17.6157 20.5305
18.1374 21.0907 25.1172
13.6459 16.0719 19.981
17.1493 21.1428 24.8952
15.9153 18.1517 21.6539
15.9637 18.2236 21.6249
15.1554 16.0467 17.3388
14.8273 20.2079 26.9114
17.1512 19.8183 23.7432
14.912 18.1111 23.245
16.8953 18.4797 21.8816
15.0654 17.8249 21.4958
18.3159 21.849 25.5513
16.3641 21.0981 27.5135
17.9307 20.2751 23.37
15.7666 19.1567 22.8828
16.9623 21.2694 26.5379
15.668 18.9453 23.4377
17.8498 22.7577 28.2489
16.9022 19.2986 22.965
15.7997 19.5312 22.3612
12.4087 17.6147 24.3878
15.2553 19.5015 26.3475
15.7756 17.9045 21.675
16.0448 20.5234 26.4649
14.099 16.9345 21.0242
14.6535 18.6118 24.8225
17.5764 21.2584 26.7014
15.4298 18.5658 23.6078
16.2051 20.5882 25.8317
13.9691 17.1212 22.3229
16.071 20.2523 24.8459
14.9351 19.5241 25.1779
14.7639 20.3993 27.6913
15.158 20.63 30.0975
20.6111 23.9611 28.1311
18.842 23.2458 27.9982
15.1383 20.9697 29.1902
14.1282 18.9 24.9826
12.8635 18.0776 25.1667
17.9349 24.4046 31.4192
15.9277 20.8337 29.0684
18.4937 22.9506 29.2116
14.9065 20.089 26.6108
11.1359 15.2487 21.6946
13.6584 19.0543 26.1465
15.3936 19.5099 26.5903
14.1629 17.9906 24.005
14.7031 19.7851 25.7258
14.6831 21.307 30.5134
15.5635 20.5066 28.5183
14.7067 20.7195 29.6955
17.0911 22.8037 30.1499
15.1858 21.3656 31.7058
14.4042 17.1282 21.1734
12.0219 17.3676 23.5673
12.5195 18.2268 26.481
13.3204 18.3938 26.7021
13.0748 17.2088 25.0782
14.3165 17.5132 23.1384
14.0992 20.8888 29.9457
15.2951 22.7578 33.8357
13.3012 16.5755 23.5897
14.2937 19.9728 28.2126
13.4466 18.3124 25.928
13.5074 19.22 28.8783
13.8182 17.8935 25.799
12.2606 16.2753 22.2957
11.3693 16.065 22.6637
11.9608 19.0008 29.8862
13.8867 18.1036 23.4258
10.8922 17.6032 30.5216
17.6284 24.6141 38.3851
18.9498 24.9719 31.4225
12.9026 18.7088 27.6047
11.9337 16.1747 23.2495
14.5572 20.5731 27.6912
11.8789 16.9459 25.1684
12.5341 19.265 28.5074
10.3614 14.5477 22.1565
11.3596 17.6486 28.3468
14.8176 21.4389 31.4116
12.9314 18.9229 29.0445
12.6897 17.8532 26.774
13.014 20.4658 31.452
14.4522 19.4016 27.0032
16.0549 25.9134 36.6963
11.2956 20.3927 37.4785
14.3992 19.8576 30.1648
11.1803 17.1094 27.0444
13.1661 20.4763 33.3718
13.7244 19.7866 29.6349
12.5972 18.5825 28.6227
13.7889 20.3233 28.2774
12.3874 21.5262 32.9007
10.7735 17.2318 30.3987
12.2966 17.1666 25.9002
11.3679 16.5151 24.5731
10.9864 18.2629 30.7781
12.632 18.3005 26.6278
11.7913 18.4043 26.919
9.82614 17.4139 30.1895
11.6381 17.0456 26.3554
10.8421 18.2118 28.6854
9.79348 15.0508 25.9482
12.146 19.5476 30.5142
12.1322 19.641 32.8049
11.3922 18.2149 29.1569
11.1315 17.9648 29.0265
10.8307 16.0292 27.4293
13.0226 20.0119 31.7512
10.4215 15.7797 27.8483
11.3149 16.2147 24.6568
12.0998 20.5929 33.2421
10.0256 16.8339 30.3337
11.8766 16.1447 24.2188
12.4272 21.5269 34.0209
12.7034 21.5796 34.6144
9.68028 15.2923 26.0603
9.56763 16.2077 28.8766
13.0321 19.1778 28.9725
9.23035 15.9397 28.179
10.0199 16.393 28.8196
8.99207 13.5434 22.9566
9.59831 16.0629 29.1059
12.1844 18.6363 29.9635
11.5776 20.3441 35.7079
11.5716 18.237 31.654
10.2008 15.0287 24.9932
13.0434 22.2211 36.3518
11.0342 19.6758 33.4778
10.7544 19.1564 38.1399
13.4433 20.0416 33.0859
12.2449 18.9481 28.5827
8.65932 14.909 27.3484
10.9492 18.9063 32.281
8.57222 13.59 25.0042
11.1597 19.1386 34.7188
12.835 21.1339 34.5551
11.0564 18.7209 32.7502
12.5017 21.5317 35.2003
11.4949 19.1032 31.9526
9.79757 17.787 31.0755
10.175 18.4696 32.8767
10.0262 16.5479 29.3401
9.32798 17.9524 34.9853
9.29921 14.8947 27.1258
7.08378 12.8484 30.7217
13.7944 21.9983 36.6435
10.9965 17.1418 27.5611
8.73492 17.5082 34.4867
12.6217 21.1601 33.6628
8.88334 16.0713 31.6608
11.4827 20.3733 34.1267
8.75126 15.1299 28.5349
9.73379 16.7767 29.2753
8.81873 16.5923 31.4065
10.1732 18.3621 32.3887
11.3795 22.3203 42.1468
8.53043 14.0171 27.6528
10.0711 16.757 28.2955
8.93221 16.5926 29.7106
10.3933 19.3326 33.9044
8.5597 17.4788 36.7311
11.5872 19.6855 34.2139
9.86169 17.6656 33.8869
10.5509 18.0264 32.3128
9.71564 17.6368 31.553
9.5302 18.624 36.0024
10.1401 18.6381 33.4342
8.60974 17.7135 33.9943
8.70701 16.764 35.6104
10.308 17.6957 29.859
9.41072 18.5091 34.2036
9.17851 17.2497 32.6202
8.31597 16.584 36.1176
10.029 15.9317 28.7443
9.40436 19.267 36.1886
9.19474 19.1622 41.0225
11.477 19.6758 35.3924
8.27575 15.4435 31.9367
9.69228 17.19 33.0621
9.58674 18.5943 36.4978
9.8491 19.0301 37.4449
9.55814 18.7398 40.3653
10.9179 18.0552 33.1154
8.89028 15.3085 31.004
10.8345 19.3171 34.9354
9.6838 17.7465 31.7444
8.63966 16.9201 34.0878
8.74733 17.4058 35.6466
8.74694 16.2704 31.916
9.17336 16.4752 31.1462
8.94921 18.3767 37.0115
8.19433 14.0308 25.3508
6.87333 15.5216 35.841
10.074 17.7958 33.2987
10.0617 20.6299 39.4923
7.83549 15.2207 32.9426
10.1929 18.2888 32.318
7.81365 15.4383 29.7205
8.22665 17.124 34.8878
7.21971 14.3169 28.9522
6.75514 14.3636 32.3759
9.40179 19.0049 34.4212
7.8591 17.6128 36.6882
9.62368 22.3968 49.4772
9.32872 16.4982 36.3273
8.6432 15.6435 34.5302
9.45395 19.0135 37.7241
7.38896 14.4823 30.2179
6.46162 12.0125 27.3315
8.09866 14.9011 31.6789
9.28509 18.4091 35.3342
9.43163 19.4501 40.6343
8.20242 16.5477 37.3194
8.54288 15.3454 28.7896
6.60867 13.6683 33.7061
10.816 20.5883 34.6023
7.74799 17.382 36.6005
7.4447 15.6458 34.679
9.03898 18.6297 37.2132
7.8096 16.4886 37.871
9.72809 18.6614 34.8199
8.73118 19.2978 39.3429
7.03293 15.0723 31.6739
7.40434 16.1789 33.0972
6.97581 14.9907 36.7605
10.8442 23.628 48.2221
8.09215 15.2558 30.072
5.88837 14.5269 37.4165
7.86954 13.6819 28.5924
8.60481 17.9458 35.7843
6.74056 14.5635 28.8435
6.81335 14.9768 33.7265
7.2434 17.1882 40.9746
8.88645 17.0969 33.96
7.17187 14.5195 33.8357
7.98545 16.5094 31.7269
6.29534 15.803 38.4044
7.242 15.4829 37.161
8.72274 16.7011 32.8022
6.56817 14.4175 33.1294
7.08043 15.2027 38.8189
11.7098 24.5724 44.6528
6.35524 14.0638 30.7106
6.27199 15.2882 34.629
7.63641 16.8882 40.5722
7.35465 15.9658 34.0885
6.68804 12.5415 28.16
6.4738 15.5927 35.3139
7.13074 16.2676 37.9258
7.67313 16.0577 34.7771
6.8901 14.7061 32.9196
7.46654 15.797 37.1639
7.31711 15.4751 36.1745
8.35874 17.4492 36.8689
7.7363 16.7017 34.9593
5.88446 13.2972 31.6735
7.15219 17.4061 41.2718
7.28297 16.4273 41.1273
8.79355 19.0003 43.501
8.00994 16.0731 32.9
6.46132 16.3479 41.519
7.02531 13.9858 32.8903
6.3357 12.8396 31.1197
6.33944 14.3223 35.2178
7.81976 15.9672 32.2667
6.15464 13.7162 34.4171
8.74711 19.4729 40.0577
6.33622 13.856 32.5692
6.16911 15.0815 39.2286
7.28472 14.9272 33.0027
6.61276 16.0713 40.434
8.42863 17.7932 37.9414
6.85357 15.8934 34.8131
6.95956 16.1027 38.7723
6.50168 12.8108 32.545
7.99446 19.1338 44.8444
8.25307 17.755 37.6167
7.05362 15.9248 35.7741
7.62293 19.0035 45.5888
7.24923 16.4671 38.651
6.75925 16.0717 38.6516
5.93371 12.8384 33.4769
6.64576 15.9533 37.3309
6.93448 16.8656 39.2099
6.77601 14.0063 31.2096
5.95621 14.4828 36.1789
6.66838 15.4245 36.1643
6.1473 14.7214 36.3026
6.11516 13.6151 31.0535
5.19299 12.1651 29.3208
5.4128 14.9677 40.1469
6.2446 14.2436 33.08
6.09782 14.2474 33.7534
6.28833 14.896 32.5194
5.08584 14.3496 41.5671
7.10877 14.2417 30.9059
6.1538 14.633 32.2782
5.46119 15.8571 41.6811
6.91112 14.1234 33.1776
5.78873 16.2467 42.6819
6.82216 14.0285 31.3304
5.78493 13.6669 34.7245
6.41059 17.0822 41.8347
6.40358 15.2967 36.4614
5.58539 13.3528 35.0343
5.30962 12.5481 34.4889
6.48484 15.8249 36.8151
5.79559 12.8226 33.4753
6.17265 14.0105 32.4707
6.20711 16.7226 39.5918
6.18485 15.1847 41.8088
6.1077 13.6042 33.2534
5.67771 14.3267 36.8911
5.11187 12.0464 32.9644
5.6882 13.057 33.3982
5.63505 12.6162 27.8505
5.26991 15.2886 36.9785
5.07484 13.2722 37.0267
5.90831 12.8574 33.5149
6.24357 17.0273 43.936
5.41122 12.2014 36.058
5.40718 11.2828 28.5306
5.25592 12.2116 30.5414
4.80857 12.4068 33.9763
5.40809 12.3836 28.6584
5.51509 15.4798 39.2064
5.27207 15.4229 46.3243
6.92371 14.5628 36.3407
6.08186 14.5211 36.4736
7.00069 17.2614 44.0548
7.07665 18.0069 50.4328
7.54293 16.6204 34.3928
5.22689 14.2005 37.1652
5.7052 14.5596 37.2949
6.06803 16.5975 39.5033
5.99501 16.7614 45.4108
7.21626 19.0022 51.4505
8.23945 20.0684 43.4295
5.46419 15.8405 43.0748
5.74465 13.8119 41.5099
6.34702 14.6861 34.4656
5.23887 12.8616 33.5307
5.26611 14.0032 35.5492
5.51649 16.5677 48.1276
6.66756 18.0371 49.3724
6.6181 13.8578 39.3471
6.06438 13.6499 38.4798
6.04905 13.5817 34.3594
5.9677 15.1264 38.7586
5.2424 12.2628 35.019
5.8434 16.3453 39.7535
6.02569 16.4548 44.0728
6.53428 14.8115 31.8443
3.80975 12.0313 36.469
4.88781 11.8347 36.3813
5.59483 13.5377 33.8818
5.22224 13.3522 30.9831
3.8659 12.6293 40.4815
5.99715 14.2407 33.1258
4.56673 13.0747 37.4277
5.52936 13.9484 36.4633
5.28888 14.3008 36.37
4.74851 13.8835 38.8807
5.21481 14.1951 43.6719
6.16575 17.1398 44.8366
5.03986 12.1859 34.8767
5.12552 13.2346 38.5696
5.74606 15.0052 39.7719
5.79725 15.8572 41.676
5.52658 15.5588 45.3459
5.56562 12.8973 30.21
4.58281 14.5254 43.3886
5.51313 13.5048 35.5691
4.93696 12.9187 35.8549
4.67736 12.1767 36.9997
5.58374 16.3762 45.4189
5.29938 11.6477 30.6339
4.14369 11.0273 30.1257
3.84749 11.6141 39.4548
6.02301 14.4945 37.0741
4.90836 13.2453 37.8488
5.46006 15.1893 46.4122
5.97024 15.2067 42.2027
5.58081 12.9981 35.6257
5.06398 14.4648 33.6841
4.18321 12.6927 41.5085
5.37468 14.7333 36.3089
4.30475 13.2549 38.8618
4.27223 12.6159 44.139
5.98844 11.9622 31.1225
5.15498 13.4415 33.7595
4.36391 12.2536 37.4796
5.94905 15.6647 37.4294
4.64714 13.4137 36.6216
4.36423 12.5579 37.9392
4.75465 14.1439 39.5141
4.44034 12.7734 42.1216
5.71312 14.435 37.2408
4.8881 15.5657 41.4967
4.2695 10.6763 33.2284
4.32283 12.5642 40.5529
4.73685 12.0682 40.3594
6.37698 17.3426 43.7085
4.74876 13.2306 40.0011
4.80643 11.6924 31.0405
4.91203 14.2523 39.4182
4.08499 11.2351 36.0854
4.8117 13.9282 40.9496
4.93939 13.4795 37.7666
5.27292 16.2999 43.2956
4.52573 12.5283 37.8761
4.90119 12.7132 37.2867
4.62989 11.3344 31.2823
4.27119 13.4384 37.815
3.92562 13.1208 40.5809
4.92116 11.4134 34.2034
4.47549 12.2458 36.3083
4.98554 12.8371 35.6904
4.15736 12.4805 35.4499
4.01653 12.1276 39.0128
4.51846 11.2378 27.5419
3.89661 13.5858 43.8732
5.16843 13.1353 35.9919
4.65464 12.8126 37.7028
4.16972 10.7719 31.1043
4.06048 12.0072 38.9507
4.58535 12.5986 39.2888
4.74723 11.5385 32.2209
3.98748 11.3527 31.2007
3.40124 9.89372 31.6136
3.98617 12.0036 32.8055
3.96193 12.6909 36.4355
3.89122 13.512 48.8087
6.58137 19.0598 48.0758
4.49704 12.5305 48.1488
6.03121 14.2001 37.8383
4.86915 14.1676 44.1895
4.64084 11.6393 36.7065
4.49536 13.6201 41.109
4.33272 11.6997 36.4312
4.21654 13.2212 42.4399
5.24754 14.5528 38.423
3.84306 11.3279 41.6527
5.78336 16.2093 41.0276
3.87797 12.6242 38.4934
3.9614 11.302 36.9325
4.54692 14.1453 45.3056
4.98138 13.198 36.0357
3.7641 11.4315 35.1105
4.32453 11.7071 34.3831
4.19226 13.2205 37.8838
3.61721 10.9925 38.1637
4.59551 12.2271 35.588
4.26041 14.3393 40.9103
3.88573 10.1859 37.5141
3.99507 10.4056 40.3189
5.10668 12.385 34.0005
4.57888 16.206 53.9963
5.80435 15.1344 42.6759
4.63153 10.9022 28.9886
3.49891 12.5025 40.7234
4.43627 13.3044 43.3268
4.53174 12.8749 46.4134
5.60722 14.4724 39.6712
4.2285 11.6622 36.5969
4.66013 13.4498 36.0237
2.99082 9.48061 37.6322
4.58197 11.9017 40.674
4.86132 14.6673 42.1386
4.60228 12.8312 43.3289
5.3708 15.4458 38.1828
3.42123 10.5777 38.0474
4.27607 13.5913 43.4247
4.37266 11.325 37.394
4.93145 15.0469 36.5457
3.35643 11.6971 41.3282
3.97961 11.9311 37.996
3.95802 13.7737 45.1746
4.47848 10.7778 30.6046
3.64889 10.5158 38.8892
4.65891 13.5847 36.4185
4.05761 12.537 40.7888
3.86366 11.418 33.7681
3.52818 12.3949 44.6459
4.46321 12.9065 40.7763
4.49054 13.0248 45.0254
4.84311 12.9601 33.9898
3.98524 13.3533 39.2713
3.78041 11.4872 33.6733
3.57493 10.9892 37.4574
3.97904 12.7278 38.8778
3.67609 11.0931 36.0143
3.94587 11.9745 34.5257
3.45203 12.7617 42.5174
3.9568 11.2271 38.3842
3.94209 12.5519 42.202
4.07534 14.0252 45.1617
4.31997 13.3369 43.2284
3.87033 10.8206 37.3313
4.22315 11.7601 37.5088
3.7741 10.3994 35.8097
4.0753 14.6285 43.7277
3.85438 11.0512 33.9317
3.56494 13.1505 42.4199
3.81993 10.5271 34.7433
3.65186 10.981 40.3284
4.50124 13.5498 31.673
3.29235 12.7333 45.7258
3.52921 12.0034 50.8129
4.75641 12.6054 42.2996
3.92887 11.8422 40.1136
4.48144 13.8955 44.7394
4.19211 12.8229 36.8046
3.45609 12.0144 40.7178
3.95902 11.9897 35.1189
2.72725 9.52277 36.4158
3.45271 11.7383 40.8672
3.6574 11.7308 36.9271
3.71169 9.91479 32.7081
4.04114 14.8807 54.3867
5.05562 15.5163 46.1933
3.57843 10.9216 40.8604
3.54943 9.88438 41.7324
4.24898 13.6328 44.5549
4.12862 9.79467 34.1662
4.0458 13.8302 38.485
3.5807 11.676 31.911
3.083 11.6136 46.2249
4.59053 14.8052 59.0514
5.80872 16.6741 37.5812
3.4599 10.608 32.0925
3.45151 16.1963 57.144
4.96377 15.3761 43.6974
3.72326 11.5692 41.5809
4.09894 13.2167 42.1624
3.62282 12.216 42.0997
4.00084 13.3472 46.5811
4.34367 13.0775 38.6481
3.39621 11.8684 37.4272
3.07794 11.3478 39.6432
3.42969 11.9118 44.1122
3.97375 12.895 46.1841
4.33151 12.8215 43.719
4.08492 12.7899 39.1679
3.38829 12.0287 45.0027
3.85836 12.7474 43.918
3.94348 12.7322 43.9444
3.5479 10.719 44.8573
4.55666 13.224 46.0184
4.56733 15.1749 47.6122
4.54733 12.0063 34.7057
3.04103 10.3517 37.7167
3.85284 11.4314 37.2485
3.40938 9.80721 35.264
3.87671 12.974 42.7801
3.82555 13.5194 39.7082
3.23279 11.9297 45.2041
3.72787 10.1895 33.0938
3.39329 12.7072 36.6592
3.13625 11.7888 44.625
3.94002 11.2171 33.0532
2.89737 10.3639 43.2903
4.03497 12.1305 42.7992
3.65337 12.9236 45.9288
4.0616 11.77 37.3119
3.41106 11.8877 36.2709
2.92015 10.1805 37.9598
3.65092 13.9369 52.3816
4.49258 13.392 42.581
3.66608 12.7064 46.0857
4.19532 13.6257 43.7909
3.57118 12.6361 43.8832
3.58855 11.0961 36.0598
3.04869 9.69428 41.5587
3.71075 9.87458 38.3871
3.80797 12.0208 43.0661
3.60404 10.6885 34.8221
2.92904 9.39712 34.5023
3.10322 10.9187 41.1799
3.9378 11.5856 35.8891
2.91304 8.4299 35.7175
3.76403 14.4954 47.1677
4.35679 13.0059 37.0526
3.33977 11.6486 39.5167
3.42346 13.0045 39.7733
3.04723 12.1776 48.6012
3.75009 11.442 47.945
4.299 12.4986 43.2382
3.84495 12.4805 44.604
3.69577 11.3612 38.0729
3.30775 10.5619 37.6718
3.02293 11.2143 44.5049
3.7693 13.3233 45.9026
4.00553 12.7058 41.6699
3.40443 11.3535 40.2352
3.00349 11.3712 43.6198
3.78622 13.5589 53.6511
4.56164 15.2355 56.9834
4.50888 11.8983 37.8922
3.4363 12.5397 39.2535
3.48478 11.4619 35.9966
3.40799 12.4638 39.0408
3.01991 11.0501 37.2683
2.80108 9.43509 36.4101
3.2348 10.0476 35.9728
3.224 12.0639 41.2785
3.51965 11.1239 35.9182
3.13561 12.2219 41.3855
2.85895 10.0589 41.3663
3.47208 10.8839 40.0759
3.24082 10.6086 39.3422
3.28055 14.9117 53.9172
4.22599 12.2339 43.8107
3.58488 10.2032 43.5497
4.09749 11.6097 35.4158
3.10855 10.6292 40.5083
3.21994 11.7975 40.9297
3.3748 10.4465 37.5099
3.37792 11.0982 32.9946
2.66714 9.58574 36.3814
3.5308 13.5181 41.2412
3.0137 8.68067 36.0737
3.14442 12.7508 42.296
3.0761 10.4129 36.5088
3.02301 11.9857 65.0933
5.18284 14.0467 41.9421
3.76848 14.2695 50.3054
3.86062 13.2359 43.9233
3.26891 9.53266 28.6708
2.54322 11.3032 49.0395
3.80448 10.1299 35.5124
3.09059 11.2432 41.897
3.40844 12.0524 39.5269
2.90534 10.139 38.0822
2.84561 8.74709 32.1745
2.46608 8.65344 33.6517
2.9233 11.3881 36.0288
3.25504 14.0442 44.1806
3.11357 9.42505 36.0213
2.80368 9.90217 49.6198
3.82302 10.737 33.0031
2.54591 10.3918 41.8759
3.333 8.99299 33.7014
2.82089 11.2799 34.5087
2.61293 9.00184 45.4723
3.77694 13.899 43.7776
3.32798 10.6459 34.1994
2.46846 6.82748 34.5369
3.05143 10.6257 34.9794
2.81146 10.1429 34.5658
2.97128 10.948 29.1207
2.3411 11.5756 42.8063
3.03554 12.769 49.6376
3.63408 11.3726 44.9152
3.61261 11.4669 43.925
3.07345 9.40912 41.2883
3.33119 9.78677 34.7626
2.92862 13.7024 49.1187
3.44769 11.3578 32.6216
2.35252 9.94824 43.1201
3.4061 11.6085 39.9293
2.9587 11.8484 48.5746
3.81651 11.4878 35.1689
2.70237 9.77132 45.3548
3.7837 14.4868 44.3717
3.13629 10.4767 48.7241
3.83491 12.5645 32.9608
2.22208 10.5282 42.1828
2.97085 9.82523 44.2282
3.51239 11.6297 48.1217
3.92336 14.5729 49.0913
3.7894 12.7883 43.344
3.21425 10.7565 33.8033
2.24592 9.02197 39.5315
3.04498 10.6517 42.1407
3.16291 8.27046 32.7721
3.05573 10.0837 34.0942
2.63863 9.78769 33.7589
2.93254 10.1874 32.5424
2.45954 11.9655 52.76
3.77704 10.7167 40.8198
3.10432 11.4814 43.919
3.2428 10.5217 41.8544
3.27745 13.2834 41.2411
2.91909 11.2693 48.3319
3.82533 14.0648 44.9501
3.1808 9.79848 38.6961
2.79696 10.355 50.503
3.99365 11.6663 39.43
2.86117 8.89002 26.0801
1.83482 8.86637 42.309
3.28097 9.53127 37.4728
2.82054 10.9813 35.0279
2.45746 8.1744 35.4198
2.94903 9.8989 40.4285
3.10515 13.6295 40.8023
2.81901 8.69838 41.0928
3.42016 10.3057 30.5973
2.62033 13.8052 59.1077
3.93933 10.762 33.9593
2.58102 10.644 44.7337
3.22719 9.55513 35.6025
2.66241 10.4809 40.3207
2.99916 9.8662 33.64
2.56355 9.49656 34.0697
2.54364 8.80134 34.9397
2.54012 9.66501 45.1391
3.36015 10.5263 29.1187
2.42973 8.73764 37.944
3.01092 10.0402 31.2903
2.49814 11.0391 37.352
2.69987 9.35199 34.7989
2.4168 10.3302 48.6927
3.36318 11.0632 35.585
2.4627 8.91596 44.4133
3.3709 12.379 39.7696
3.21253 11.7373 41.6082
2.75389 9.37324 37.2899
3.00685 9.83082 33.7504
2.59529 9.10914 30.6988
2.27345 10.6585 60.6485
4.52779 13.4013 41.0306
2.7525 10.1433 36.9058
2.69576 9.62015 32.201
2.22827 10.3341 42.7328
2.82354 8.42487 33.9226
2.28636 9.64707 39.5868
2.472 9.17308 37.3067
2.56783 9.65528 44.4841
3.32404 11.3664 42.8835
3.35743 13.8541 51.5235
3.76318 14.3178 50.8692
3.39601 8.16651 31.8014
2.57005 8.82895 32.6519
2.40859 8.91442 33.6533
2.49902 10.7534 39.0965
2.65521 9.49312 36.8679
2.64816 9.80006 41.5805
3.09828 11.077 34.374
2.21716 9.60045 33.5658
2.43243 8.65274 41.5672
3.296 9.85454 37.6362
2.41646 7.97875 41.9042
3.24253 11.5025 41.6229
3.17128 11.2573 46.0158
3.27225 10.9733 41.741
2.93315 10.4585 45.1838
3.02996 9.36193 38.2317
3.09992 12.9885 49.8799
3.31225 10.3342 37.5688
2.57581 10.0624 37.6234
2.65627 8.92052 37.0941
3.03154 11.0445 37.0201
2.50218 9.32849 45.4942
3.14416 12.3876 36.6807
2.57972 9.88191 36.4106
2.42328 9.11902 38.3189
2.48416 9.79026 38.0453
2.77936 9.99691 38.0091
2.6989 9.85302 36.324
2.60634 8.57389 36.0095
2.60078 10.2481 41.6019
2.76974 11.2674 40.5565
2.56832 8.88193 36.6374
2.62535 10.114 44.7795
3.15064 9.12639 39.3166
2.87496 12.3225 37.1015
2.50629 9.89474 39.6752
2.78307 10.8705 40.0812
2.64265 9.39097 37.2656
2.65422 9.63091 37.1549
2.56336 9.2463 36.2221
2.54814 9.09221 33.47
2.44707 8.22428 29.0621
2.30937 11.246 50.4143
3.36066 9.16283 38.1152
2.68512 9.69076 35.3338
2.45171 12.5684 40.4832
2.56703 8.21775 32.532
2.28479 10.5474 45.8594
3.01383 8.11395 39.9797
3.07597 11.8476 49.5673
3.49094 10.1465 33.9828
2.43835 10.2134 35.5744
2.38955 8.87393 34.6573
2.29881 7.45092 34.1365
2.48238 10.9002 42.1238
2.88436 11.8116 45.0985
3.02293 8.89234 31.3899
2.22691 8.71717 37.4739
2.68784 9.72382 32.4494
2.17731 7.60247 31.1643
2.27844 9.00664 37.0873
2.62081 8.00848 30.5284
1.99925 8.19047 42.5783
2.92342 10.3541 35.3821
2.51687 11.016 39.5348
2.66666 9.7723 37.8319
2.35992 10.1349 44.3343
3.09252 12.3816 48.1205
3.12449 9.02494 32.2573
2.32518 9.77088 36.2676
2.47509 10.6278 34.977
2.20011 8.55221 42.85
2.83036 11.8574 41.4497
2.79026 11.1353 38.4174
2.31325 8.36987 42.6855
2.83971 9.52003 35.0633
2.43641 11.5363 47.1574
3.08763 9.34251 34.7268
2.29014 10.5619 45.4572
3.01136 10.3466 36.8481
2.35642 7.75789 35.885
2.47997 9.2722 29.3482
2.00063 8.60206 37.4364
2.57787 9.22847 31.2391
1.93634 10.7122 63.3004
4.26301 11.5915 37.9677
2.47897 10.4249 42.268
2.81212 8.79256 32.807
2.27103 10.5382 40.2717
2.60056 9.29405 38.8741
2.7733 10.6444 38.6792
2.91775 12.106 46.7616
2.75831 9.32079 39.8148
2.5227 9.38416 30.7356
2.10272 10.1729 36.6369
2.39839 10.6453 36.6369
2.396 9.57475 36.4911
2.57572 10.5382 49.1163
3.26718 11.1766 41.668
2.89486 10.9161 38.7969
2.42289 8.33376 33.86
2.14211 6.93849 26.1337
1.74146 9.7253 50.2873
3.46311 11.7824 35.6934
2.42849 10.2823 44.932
3.15915 9.01394 38.0999
2.75946 9.8594 38.5658
2.49591 8.41026 35.0515
2.34253 11.4873 42.2893
2.87633 8.49901 33.5859
2.26096 9.78666 38.4014
2.7243 9.71813 40.8896
2.8686 10.8523 40.1046
2.69044 8.72112 36.6542
2.34735 8.58649 38.0013
2.74616 12.4526 41.5537
2.71123 8.8895 38.8682
2.67111 8.52996 38.2456
2.57954 8.93864 38.522
2.43139 10.687 51.3496
3.61358 9.9755 42.2751
2.82153 9.89108 39.4413
2.7804 10.4036 40.7099
2.77875 9.98426 34.2645
2.36413 10.3881 54.6587
3.45215 9.60659 32.5895
2.20085 10.4375 34.5052
2.41078 9.37854 38.1646
2.73688 8.34937 30.3842
2.06845 8.9256 33.0865
2.35658 10.5386 45.1096
3.04069 8.34335 33.7321
2.34346 9.12147 30.534
2.24847 9.23724 32.7929
2.16629 8.33333 30.2754
2.05627 8.55744 31.673
2.21254 7.9194 34.912
2.44345 9.83228 35.8946
2.48549 7.6742 40.0169
2.68484 9.81192 33.2576
2.23687 9.08953 31.4881
2.08656 8.13788 38.868
2.79272 12.1162 38.6417
2.53224 8.30386 32.1991
2.22763 7.35911 31.3661
2.04933 8.79448 38.0704
2.52426 8.75467 38.435
2.42698 10.5145 35.2095
2.26824 7.99551 33.9532
2.22992 10.1976 48.535
3.28702 9.57261 26.3035
1.90472 6.65487 28.5271
1.9721 7.48457 28.8801
1.94334 10.1698 38.6075
2.47785 6.57444 35.2582
2.30118 9.84826 48.9097
3.28398 10.3195 31.0068
2.03685 9.73373 35.1268
2.40275 8.55077 47.4315
2.94218 11.7762 39.1598
2.81987 9.82787 34.4128
2.18496 8.94853 37.8039
2.46435 9.00555 33.0325
2.08128 8.90361 38.787
2.72203 8.98754 33.9546
2.54576 8.75654 42.9475
2.89452 9.85577 37.8111
2.29677 9.91513 39.6632
2.77499 8.89572 38.1625
2.72125 10.3757 44.7939
3.18997 10.1107 42.4153
2.93392 8.91401 43.0636
2.91468 9.23034 29.5858
1.9278 7.69261 31.6196
2.10301 8.61756 31.3549
2.09795 9.0543 40.3101
2.78156 10.9127 37.4116
2.38545 12.2642 45.7754
2.9883 8.51153 39.1258
2.53849 11.6124 38.1996
2.67501 13.4237 64.0333
3.94247 0 0