# pn-170911/RbIIA-30-TWTF-1280-1959.psd
# Power spectrum* (dif=0,1,2) (really just |FT|^2)
# NOTE: only the first half! (symmetric)
# weeks: 1280-1959
# 4 clock-days, 0 excluded
# PSD: 1441
12966.9 0.821889 0.029147
1.75405e+06 42.9686 0.00397232
1.36292e+07 247.323 0.00703155
5.08732e+06 140.694 0.0133328
802651 124.653 0.0153291
651296 40.4239 0.00825104
633029 171.24 0.0321596
1.12482e+06 172.93 0.0355348
1.64948e+06 570.332 0.201891
1.82176e+06 817.394 0.29185
1.07619e+06 354.849 0.167946
152791 168.955 0.106917
121180 59.5967 0.0331651
66389 109.652 0.0823915
759716 581.546 0.510561
269186 237.341 0.285421
281853 417.682 0.48099
501712 513.51 0.690843
99315.5 101.919 0.181345
20846 13.8823 0.0221324
48635.2 46.5145 0.0895025
158364 210.044 0.457225
136349 272.243 0.668148
19116.3 92.888 0.255636
59574 87.3206 0.250416
162336 411.067 1.29269
95270.1 423.736 1.4149
28144.5 108.695 0.347358
38756.5 116.173 0.478931
43941.6 278.981 1.15387
17087.1 135.366 0.597343
30800.3 192.936 0.835966
11781 33.4574 0.146473
21499.3 201.953 1.09011
84541 505.951 2.6869
45370.9 164.576 0.907804
4223.49 31.0463 0.19065
42141.1 230.375 1.4412
24955 85.644 0.564716
14486.3 51.7936 0.352648
25427.6 102.163 0.769661
6224.59 16.0438 0.136723
36234.3 187.193 1.57306
15402.7 115.135 1.05028
4637.29 12.0407 0.100557
18582.1 110.973 1.11615
7684.36 71.7572 0.783598
4473.32 24.6166 0.284931
3938.81 38.0736 0.465333
1211.13 40.8149 0.48005
980.712 6.85082 0.0924459
1075.65 31.9177 0.452172
2472.43 51.5525 0.614571
1669.61 5.78333 0.0724703
2025.09 60.8539 0.831419
7504.02 52.644 0.688591
1026.64 48.264 0.77133
11380.7 161.389 2.41292
7868.02 55.0579 0.873608
993.709 44.3094 0.733819
7626.59 58.3552 0.962331
949.11 8.11557 0.155262
4770.31 31.6748 0.604801
1504.93 31.5785 0.631881
795.82 16.7207 0.313096
3117 18.2932 0.382784
207.69 17.6748 0.376343
2043.61 22.1842 0.461402
2072.17 9.39623 0.220577
50.5349 17.6107 0.400876
626.35 16.4128 0.406897
1368.33 15.1025 0.326625
1077.41 20.482 0.553999
691.487 7.89665 0.18893
1627.7 25.4626 0.620155
3507.7 34.4686 0.896915
2058.42 19.1483 0.550206
442.873 12.4391 0.337113
1895 18.2777 0.553782
1806.06 33.8822 1.03647
396.4 8.77165 0.238399
1057.46 10.1431 0.324833
513.993 21.0707 0.716621
835.144 7.03532 0.220568
660.187 13.2298 0.480453
533.369 10.7626 0.37188
663.547 16.4223 0.642317
945.087 50.0559 1.81741
926.974 9.80425 0.304987
290.753 19.3273 0.787508
958.443 19.181 0.700836
1219.13 17.0552 0.621435
207.444 6.41078 0.272114
368.629 4.12737 0.233483
679.735 14.9057 0.580282
388.578 5.10485 0.26607
981.728 11.1241 0.470102
427.519 13.7722 0.670033
475.058 14.6994 0.614917
1043.95 21.187 1.03772
485.348 47.2711 2.24343
2115.25 50.7236 2.34719
303.823 24.9798 1.27651
666.233 30.7183 1.52295
928.921 18.0241 0.925191
542.797 21.2187 1.08734
1002.16 13.9468 0.759316
267.546 35.3501 2.02337
1613.05 35.6193 1.86534
1091.18 37.0646 2.14601
251.91 23.6217 1.35248
971.012 12.6521 0.714062
175.639 11.9446 0.667577
565.219 4.28413 0.257063
363.011 15.1271 0.943793
579.75 7.93632 0.472178
1490.67 41.2189 2.74441
530.635 44.8402 2.89767
590.809 15.6447 0.977219
708.73 23.7108 1.56524
294.688 12.4022 0.940082
444.532 20.8348 1.46861
522.89 19.3278 1.36605
650.923 15.4979 1.14832
449.563 27.4272 2.16494
409.189 29.4893 2.00861
464.424 14.4083 1.11178
696.838 19.5072 1.58947
147.259 37.2285 2.88258
309.08 11.3764 0.911013
265.84 7.23059 0.558483
342.642 15.6516 1.41175
204.069 16.3937 1.39071
828.621 43.0544 3.36391
662.076 19.7449 1.72671
140.956 13.1778 1.04343
356.366 25.6238 2.1671
426.324 9.06515 0.844403
173.149 7.06369 0.607906
403.381 5.25964 0.4533
357.979 10.3962 1.00247
534.127 14.2624 1.34262
90.3302 11.4404 1.07989
330.819 8.17345 0.692036
288.676 6.5689 0.651533
297.269 14.3823 1.63204
141.473 4.91391 0.379346
303.006 8.24395 0.840273
170.826 5.62493 0.63578
56.7946 6.14714 0.637199
183.558 10.2617 1.22173
364.71 6.50072 0.715879
118.249 6.09379 0.587723
44.6993 10.358 1.19441
258.794 5.58748 0.604209
51.3113 10.6271 1.28984
259.667 13.9309 1.56602
159.326 2.72118 0.234812
212.225 11.9566 1.60622
255.141 7.05265 0.829978
170.791 25.0206 2.81934
195.374 5.08973 0.559169
38.2293 10.2261 1.42285
239.884 10.7259 1.23313
217.69 9.74186 1.34617
94.8504 10.9248 1.34552
274.761 15.7947 2.13068
142.244 19.5309 2.64261
710.007 35.2914 4.48076
61.0726 12.8688 1.72652
257.108 17.1249 2.33539
314.28 8.02477 0.989535
213.807 6.18305 0.940332
227.928 7.47805 1.01905
120.377 5.55593 0.754134
101.994 3.5442 0.562777
252.246 9.43158 1.40568
91.6882 12.3069 1.91208
427.155 21.0539 3.04048
106.963 19.1226 3.30242
233.15 25.9675 3.56826
285.466 13.9722 2.20686
108.69 7.1783 0.944698
132.624 4.6219 0.825143
117.324 13.7322 2.31136
251.347 19.0605 2.89311
24.3339 8.51784 1.43521
137.092 12.9416 2.35725
225.191 9.5539 1.42652
62.1385 3.3451 0.728872
197.718 4.76144 0.81293
106.603 1.30871 0.184784
277.217 12.7932 2.34337
96.3282 8.04041 1.27108
253.03 8.26464 1.27712
232.092 20.9005 3.83285
131.196 4.12974 0.778259
66.071 15.8455 2.59163
125.318 5.49587 1.22499
176.253 16.986 2.8932
105.92 6.17257 1.30543
35.3164 6.99335 1.32611
100.542 3.62174 0.671036
47.3452 2.4017 0.362719
28.6473 13.9034 2.95807
95.4318 8.69088 1.83958
127.26 3.14747 0.638292
283.462 15.3397 3.04311
82.972 11.0602 2.29883
99.2818 5.5791 1.09822
141.342 5.46587 1.24946
153.061 5.4976 1.08206
109.295 5.74338 1.00966
148.394 12.4186 2.49521
151.93 10.4321 2.34146
31.8749 2.85717 0.521276
85.3399 5.14379 1.13317
52.3096 10.5257 2.3734
142.794 5.96054 1.26396
24.6628 11.7739 2.79933
161.259 5.59544 1.23168
38.236 7.3789 1.69463
69.5876 3.7 1.01066
163.639 9.48636 1.8703
56.468 2.33368 0.561117
88.4265 12.1568 3.30446
104.743 3.05218 0.809712
269.679 18.2847 3.91111
63.3782 3.23397 0.828929
76.558 7.42389 2.08759
142.695 8.95729 1.83766
80.8894 3.20423 0.796807
143.758 10.0586 2.76371
18.9895 12.7671 3.60538
167.139 9.10592 1.98385
46.2668 2.84428 0.846657
167.989 10.6556 2.62567
93.9516 6.82903 1.64121
104.023 2.688 0.810215
89.2093 9.68462 2.68981
80.6858 14.6371 3.87126
103.175 2.22974 0.478824
113.524 4.81204 1.31672
70.2098 3.00096 0.827348
113.197 12.5309 3.37835
131.293 8.77105 2.23402
108.974 11.995 3.4786
192.19 17.6855 5.36776
84.4955 7.8492 2.52569
33.3424 2.97326 0.686581
159.946 17.0259 5.19659
39.4198 5.15381 1.23817
42.0114 16.04 4.66376
57.6055 5.61649 1.3596
73.9416 10.1872 3.63918
185.095 15.6996 4.29444
43.8921 14.5588 4.53975
118.463 17.9994 5.90341
123.062 13.5069 4.18973
131.08 13.2445 3.63683
146.243 12.325 3.90121
36.2855 4.12761 1.20528
169.936 16.4392 6.11338
14.6173 6.80155 1.54994
55.8558 9.12452 3.00902
159.923 14.8221 5.71997
10.1175 17.737 4.70347
66.001 2.44336 0.915824
14.4263 9.10354 2.89392
65.8142 2.74263 1.01734
41.6229 6.03515 2.25883
15.9615 17.1265 6.51069
105.309 6.93027 2.63118
36.5704 11.091 3.30762
60.9864 5.16667 1.62768
20.9465 3.36394 1.60008
40.3543 6.29244 3.45442
191.406 20.4521 6.11247
57.038 7.568 2.58274
97.4785 8.69918 2.57287
63.2385 4.3162 1.64353
184.508 19.6595 6.54191
128.676 14.6726 5.14222
71.3314 4.24741 1.9245
114.525 13.6496 5.35074
25.3048 9.34463 4.08648
81.3937 18.352 6.32458
42.9302 8.16905 2.94275
97.3641 11.2804 4.73214
128.841 23.146 9.03136
23.2326 10.5138 3.71028
99.4604 5.61236 2.07344
83.0237 9.91114 4.65008
25.1325 10.218 3.55266
28.8918 15.3957 7.03279
63.9729 20.3767 7.70276
112.568 12.7467 5.06088
25.6267 15.2201 6.6395
101 13.3153 5.08122
20.2125 22.5978 9.2454
60.8981 3.45676 1.40774
45.181 4.21304 2.29113
63.4628 6.50021 2.51918
153.056 17.304 6.82422
29.1189 10.7785 4.7208
97.8121 23.2624 9.972
93.572 9.02256 3.25255
60.8641 9.31828 4.32812
48.7522 4.83771 2.35441
74.2302 16.1107 6.66879
72.2355 4.77053 1.86372
38.329 9.42139 5.01563
65.541 17.7822 7.08691
99.7828 9.84183 4.72452
32.2933 7.71945 2.88679
69.7085 4.48037 2.22243
27.3218 4.64733 2.72959
42.9147 1.35947 0.581555
71.5304 6.61818 2.39553
36.3223 9.04392 4.24619
114.369 12.5108 5.43586
53.1462 8.29425 5.00633
25.6126 4.15225 1.20661
31.805 3.78954 2.07732
19.515 14.4418 7.41338
84.4744 8.68351 3.33486
61.7877 6.93816 4.15259
29.3111 10.0777 4.6806
55.7356 5.69566 2.55947
24.0656 10.0967 5.34353
76.8317 10.2629 4.09096
48.86 3.81121 2.07647
20.1966 3.26717 2.58018
67.4195 20.6741 8.1987
62.7101 5.77515 3.71827
63.9982 16.6001 6.28801
31.2397 8.33593 3.83344
21.8184 10.4914 5.58612
103.808 30.8613 17.4908
28.3169 3.18199 1.85929
47.9156 9.82174 5.73173
84.3536 15.4725 9.41062
21.9166 6.33554 3.71652
50.7287 4.79066 4.03492
35.2109 6.88919 2.32281
73.8063 13.158 7.60717
68.9531 7.48318 4.40479
39.2004 17.0912 7.1031
35.821 6.40686 3.52973
40.5392 2.43971 1.30452
49.5137 4.65534 3.26657
22.1637 8.89139 4.21814
25.4774 11.0836 7.81273
57.4413 8.09638 3.00535
36.3011 4.87495 2.85137
22.6244 3.65309 2.42698
39.2446 10.4954 4.70722
36.2505 11.5956 7.19366
59.664 12.6245 8.63469
30.3115 6.16154 6.38617
120.985 24.1809 12.8149
30.5071 4.04298 2.16847
49.739 4.7521 2.46026
49.2044 7.42239 4.13579
75.9514 11.0316 5.78247
30.1379 1.51162 0.980707
70.3334 9.85689 6.99227
51.1964 8.39905 7.01692
6.82521 8.04302 3.83174
49.561 11.5904 5.93703
10.0492 6.08702 3.89228
24.624 4.62243 2.36337
37.9598 15.618 10.3694
50.7716 7.67929 3.98077
69.4264 11.4108 8.07359
14.2531 11.0002 6.54467
41.0331 2.03851 1.11462
49.517 10.4537 7.32514
13.3139 2.73746 1.24249
31.8803 2.32965 1.77017
19.2122 3.07388 1.66587
24.0809 7.05381 4.15008
24.8301 1.98567 1.60326
13.7469 5.73559 5.20616
84.4637 15.1827 9.46873
8.48799 9.83559 6.23565
45.4795 8.72626 6.2102
22.0863 6.59936 4.32844
17.5785 13.7763 10.3962
76.3137 8.85883 4.73872
29.6347 9.43324 5.97169
41.4561 6.26571 3.98426
51.3626 15.7834 11.997
55.5792 18.2639 12.3535
47.7771 12.0083 7.67458
21.4834 4.79669 3.50206
37.7186 3.08685 2.01593
9.72563 11.277 8.64484
68.2644 13.5275 8.92771
41.315 5.80287 4.96795
9.86226 8.27757 4.79702
42.0451 5.11253 2.91179
27.15 4.7687 3.35088
29.3769 3.47845 2.59242
17.6434 2.33923 1.62568
41.9654 15.8032 12.2636
42.5159 7.05138 5.79616
17.3406 4.25741 1.79874
18.0512 8.26451 6.46544
53.4521 9.165 6.80192
15.4774 5.19496 4.22999
49.6807 20.1465 16.3406
44.6408 8.19476 6.10683
35.8471 7.95589 5.62697
20.2432 16.4117 15.3156
58.4681 35.0327 23.5284
38.4057 8.03096 8.82387
25.7034 7.08944 5.18758
29.6394 2.54173 3.2586
33.6109 9.49869 4.89956
24.5414 3.79812 3.2347
34.2789 22.1555 16.0273
18.1764 7.43784 5.48334
34.2279 2.56803 2.92628
14.7618 6.95949 3.91344
27.6258 4.39138 4.38383
22.0647 5.55246 3.67904
8.54197 8.62317 6.4901
9.50356 3.92976 4.16112
23.1395 3.54175 4.6174
43.3491 8.6644 5.85633
14.458 2.22333 2.66617
33.9264 7.17207 6.33623
40.2907 4.94572 3.77571
11.8554 10.5652 8.0546
37.1884 5.6981 5.20504
23.5755 8.21336 7.20764
29.9224 3.83049 3.43313
58.3184 12.7752 10.8651
15.2334 5.25303 3.67168
45.2402 11.5604 12.4808
8.58611 5.25947 2.55851
26.3444 18.3462 16.0693
40.0066 2.71163 2.28224
36.0653 10.7641 7.60689
15.2228 5.44682 5.93797
36.6176 4.08787 2.26389
42.0663 7.95687 6.29263
26.7178 6.3923 5.74838
15.0824 4.63887 3.84814
24.5969 10.4121 11.9503
31.6488 7.02171 5.93973
7.86472 13.8669 13.0499
44.2145 10.8477 9.01103
10.6537 4.68265 4.38353
32.6235 1.91546 1.84375
55.1971 15.7096 13.0768
26.2925 7.80699 6.53857
15.1689 6.09902 6.34065
10.9999 10.3516 12.9403
59.1048 22.5301 20.7392
13.9921 22.7921 18.2299
34.7262 16.91 17.3971
50.556 18.3902 17.8918
49.046 14.1523 10.8861
18.8457 2.80296 3.1988
19.6349 24.4776 23.8131
28.766 2.4786 1.99903
37.0343 10.0184 12.6593
12.9379 23.2696 18.4545
28.0251 10.6255 12.1296
19.4863 1.51549 1.62503
27.0376 14.7941 18.2445
35.5849 3.35512 2.44971
49.6802 13.2807 8.60158
22.3247 4.05757 3.90589
31.8603 6.2363 6.70995
14.3736 6.39719 10.4739
22.8495 3.47571 2.32728
24.2534 4.95073 3.99449
17.8753 2.32402 4.49571
44.3302 12.0152 8.37359
19.2177 12.9316 13.6353
32.1614 10.2362 11.2868
20.1974 8.33925 6.01068
8.55333 4.684 4.79417
27.4975 5.1167 7.7753
7.23246 8.73612 6.13759
14.0867 8.47443 9.50014
10.0645 5.85344 7.64425
41.426 9.54671 10.4991
6.55366 6.46673 4.5266
4.78551 18.3657 20.6919
21.9619 8.44267 11.9441
48.4761 13.6624 12.7466
8.19059 7.95643 6.36942
23.801 3.32389 3.14404
23.1567 6.99876 6.55289
21.1837 6.14148 7.56084
33.0306 5.46795 5.91595
26.1394 8.86073 8.10661
38.8489 10.8648 12.9938
12.712 9.92228 9.76107
11.4353 3.01456 5.06576
39.7459 18.3312 16.3434
22.3723 6.1857 11.4375
9.87709 4.2513 8.58282
10.283 11.8047 10.6171
16.3217 21.7283 19.0525
17.6696 3.3419 4.54306
15.6386 2.30255 2.84645
22.7043 4.79961 5.25241
11.4563 14.8924 20.314
21.9775 2.91658 2.33264
28.2399 13.0055 18.4565
9.06136 8.33018 9.68749
36.905 11.7132 10.8416
2.41739 9.16729 12.3107
18.2222 6.13095 8.2346
18.0213 7.34438 10.0559
8.1239 11.9796 15.7937
29.8051 3.94835 3.01888
43.8179 14.1386 11.1726
25.2066 8.50401 7.67181
27.5805 4.50553 4.11019
20.2041 10.4075 16.3027
21.1943 4.04494 3.74812
27.5882 11.6642 16.5867
20.1591 7.53893 9.88666
12.7731 18.4114 18.0423
6.58035 8.57448 12.2645
30.0429 6.34701 5.76955
14.1205 11.6771 13.4388
17.9236 2.85919 7.66946
31.6053 11.6071 12.0903
5.17664 4.09098 4.56295
19.9448 3.40257 2.85152
14.0029 8.20627 11.1874
7.41682 13.3552 14.1911
16.7315 9.09772 10.4933
12.9359 3.63976 7.35677
24.7514 9.3745 13.6554
44.8093 15.1951 15.3942
9.4689 5.1765 11.5199
12.0715 8.31402 9.85254
25.4178 4.96519 8.65604
17.174 8.96544 7.73931
26.531 11.1521 16.4834
26.6128 9.46111 9.945
49.3625 27.7424 37.2843
31.2015 15.8676 18.7875
11.9957 11.9585 12.7483
18.5305 2.58868 2.7475
20.2813 7.90747 13.2022
44.7214 23.866 30.6321
13.4437 20.4278 32.5868
17.9787 22.0389 22.2379
27.1087 6.52961 6.31403
12.8437 17.2629 28.0148
38.0652 19.1699 20.2361
10.1498 3.74418 9.26274
36.9156 20.9664 23.2517
16.9938 4.27334 8.14368
37.7953 21.1664 26.0561
18.0659 2.44086 3.64364
17.9927 4.8473 6.50705
20.7213 8.71062 10.535
4.56388 17.1143 28.8669
58.4786 29.3475 29.4207
10.5075 22.9663 30.6738
13.3481 7.81734 11.736
15.3592 0.827057 1.90121
21.2543 4.21835 6.76926
8.46019 8.62375 15.1202
15.4229 5.9645 9.35371
48.1083 20.2238 23.5049
5.28525 6.64025 8.77361
14.646 6.40549 9.22929
24.2654 5.28568 5.54469
8.0306 17.6087 28.3576
19.6018 1.88909 4.5957
24.7538 8.73411 10.4557
19.8092 5.12292 5.54889
24.3617 6.52342 7.2246
13.6304 6.78054 10.9063
23.6866 5.41184 4.74593
21.6241 6.04954 8.00917
19.0517 5.27686 9.62696
7.64501 4.29952 5.1958
8.34414 4.96023 7.15612
15.5347 8.6855 9.99792
5.15022 9.1199 16.9052
23.6071 10.5994 14.3969
18.4846 2.21833 5.40929
19.3653 15.2841 18.9672
13.7078 19.5559 32.2831
32.4971 7.3751 6.32972
12.8454 2.89052 4.24755
7.47736 3.72015 3.88121
8.65408 12.0833 23.093
35.163 11.5872 12.2029
13.9292 8.68996 15.6249
10.1739 7.717 9.43539
23.1117 8.62778 12.9894
7.38491 10.6402 17.6481
21.3677 9.33475 13.514
35.6668 19.8689 26.8938
14.6268 16.278 23.1154
29.7332 18.1336 25.0817
3.71092 12.8734 26.368
30.9717 9.95383 14.6139
21.8688 6.20497 6.05377
23.8932 9.45279 17.2432
23.1354 13.683 16.4593
6.0625 3.6382 6.894
9.93357 4.40455 7.98234
24.1276 8.86005 14.6745
10.7166 4.12648 6.88535
14.2617 5.83631 11.557
10.5238 5.63942 12.0033
7.6059 28.4966 38.5386
19.5824 6.84078 12.0695
12.1624 9.91276 16.1411
24.222 12.3378 18.4532
14.965 12.4649 19.0467
7.43089 17.4902 30.5187
25.7894 5.37522 7.23974
13.1025 1.35898 2.41606
14.0936 3.40831 11.0988
12.3389 4.1858 2.09578
10.4989 7.35176 11.076
8.79369 9.62452 20.1336
18.5445 13.1472 12.692
20.7115 21.398 50.7723
28.7194 17.7581 16.1798
12.5781 2.94346 4.22267
18.653 6.10999 13.6198
14.5841 8.28173 9.24003
9.59121 9.84391 19.5969
19.2664 6.04777 9.03338
32.9044 14.3803 18.4199
6.67999 4.32243 10.0646
10.7825 4.73953 12.3609
23.2766 11.4709 23.563
13.8947 10.2176 19.334
10.9211 14.6126 17.3591
11.1055 6.98198 13.8696
3.98532 4.5415 8.57974
20.7379 10.0388 15.0541
7.16927 5.67742 15.5888
13.5778 9.17687 9.4875
21.5016 11.1195 21.5637
0.839545 15.8595 17.6872
14.8564 23.6449 54.9382
37.9762 25.9676 37.8165
12.8153 12.382 15.464
7.94916 12.5434 24.8009
30.7136 13.1563 19.077
12.315 4.25122 8.48197
8.87603 9.54159 15.7756
16.9878 6.08525 18.6523
29.7374 19.082 39.8949
19.6373 18.3937 14.6513
21.8661 13.6069 25.6937
12.0435 3.07923 5.40105
7.27201 1.08929 3.24184
5.54221 3.73256 8.2725
10.6152 14.0117 25.6548
20.9158 9.19121 14.6179
12.1689 9.60014 13.5308
10.882 1.67957 3.15794
15.884 7.0845 14.3522
11.0655 3.97219 4.37763
15.7353 12.9918 30.5904
3.11148 7.71485 9.77877
18.4289 7.19602 15.9319
1.48896 5.83951 12.2555
5.77705 21.1761 32.507
15.428 1.72175 4.08598
15.2636 5.89455 7.56449
13.8103 9.2888 24.0668
9.07946 12.3955 16.1613
17.0405 5.63143 11.5715
18.1945 8.20994 14.0715
11.8441 14.1959 29.1044
15.6175 6.95684 8.01402
14.4425 11.797 28.3803
17.1049 6.36338 11.1262
4.64505 7.05728 15.3669
25.5142 8.5525 10.0462
25.9185 23.056 38.9368
11.33 8.79643 14.4162
9.57591 7.41466 19.454
11.9335 6.54495 20.202
2.95256 1.37079 7.0643
6.63368 4.1932 3.88959
6.21258 8.86428 21.8875
5.29081 8.50284 14.912
17.2954 22.2377 29.7668
6.88849 4.66987 8.62794
9.6281 3.39889 12.0174
8.56617 4.33492 7.78823
9.33953 11.0604 23.5636
6.52924 4.12877 20.2045
18.197 26.1852 35.4145
9.561 1.42013 6.17784
13.0852 6.18218 13.6936
14.0895 2.77699 5.2627
11.9929 10.8377 23.9995
3.84045 5.15758 11.9165
20.8197 21.5543 29.6818
12.8349 3.97524 14.3778
4.25813 13.1578 20.8233
16.3393 8.98523 15.4376
3.79396 13.3214 30.6462
16.3261 10.9764 17.0708
10.7696 11.2751 44.8455
23.5108 12.4844 18.5177
13.9351 12.0806 13.3206
10.0944 2.73282 10.388
26.0908 14.1768 17.5418
6.43721 3.98012 9.9054
14.958 6.47464 14.3913
14.5312 6.59907 21.1957
3.86264 12.1796 14.6442
15.2424 14.0687 25.0392
3.78333 7.54246 22.8165
22.5822 16.514 29.1278
4.39996 8.40288 6.05414
3.45765 11.2775 24.2619
17.1947 21.524 55.2549
13.4248 2.43338 18.4342
15.3232 12.7185 22.2917
15.4476 3.25163 6.69771
9.09055 4.19014 9.99615
5.47523 9.03267 25.4025
17.6692 27.4307 48.1855
22.5281 14.8429 30.3546
6.90155 4.47549 4.46632
4.93561 10.9285 44.4028
29.8044 16.137 22.8787
23.3046 10.2633 12.5201
17.6991 6.48342 10.1628
8.59385 3.79696 17.3272
12.4015 5.69056 4.55313
11.7133 6.49301 15.4971
6.67522 11.1848 42.1326
27.2337 19.5043 28.6247
5.83951 2.53656 4.71224
8.20649 6.24032 16.4986
10.6862 7.93017 12.4162
13.8761 7.32375 15.6662
9.7427 6.69109 22.6327
1.50766 13.4883 28.3444
18.4763 8.12319 10.4305
9.62856 6.56528 19.1126
3.85691 9.19468 12.6194
8.70833 4.4742 11.4
15.7586 7.16558 22.356
8.77392 20.1798 34.548
9.34721 5.17225 18.0688
12.8119 14.3455 28.4516
5.6104 6.9515 20.1395
9.82196 7.95802 21.4386
10.3319 12.7809 29.3843
14.9296 16.8773 36.4775
14.8518 6.82289 24.3955
20.9467 9.01776 22.5118
23.226 24.3029 47.9287
10.923 20.91 32.7848
8.02804 2.38689 8.06639
10.5635 1.78578 4.14112
6.90306 15.0648 40.9909
15.4395 11.2979 13.9293
6.99094 6.06385 25.8132
12.93 6.73189 7.5694
5.38686 14.0305 24.1031
4.16808 15.1352 52.0378
24.7119 8.26089 18.0226
6.45749 17.9492 34.2242
24.1972 38.1862 81.3706
14.3979 2.77454 10.2523
11.1519 9.18653 26.0676
20.1052 16.4016 25.5321
11.3585 2.7851 8.47117
12.0675 4.91144 10.2881
11.9759 7.151 18.8182
22.321 15.8326 34.3541
22.7367 16.1596 21.0575
7.63405 6.85602 28.7447
18.3384 18.1264 25.6346
14.0329 14.7434 52.706
6.69657 10.3133 19.2017
7.10073 3.45219 11.3421
6.21767 10.0784 23.9294
8.64042 6.66444 16.6002
11.3491 2.55178 7.85642
6.98045 11.1729 30.4088
9.47834 8.66373 28.5321
8.95922 26.8655 45.8081
9.56229 6.13226 21.9338
14.6323 5.8001 20.278
20.7254 13.055 16.7044
10.2536 5.78691 12.0898
8.14771 10.5125 29.2383
8.92159 5.14934 18.1042
4.28798 2.4465 9.86205
7.9534 7.86907 26.1184
18.8098 9.91015 19.21
21.7871 21.3254 49.7429
9.65329 21.6293 40.723
16.7855 7.65904 11.8712
14.035 13.6674 30.8161
10.6747 8.62578 25.3259
6.71043 4.3054 36.0261
8.96372 15.2343 22.0046
16.8871 18.2744 22.19
5.74115 22.7923 69.8558
10.5748 25.4897 51.0969
12.2145 14.4836 50.0867
4.80116 7.44477 31.0952
8.96436 6.336 4.64771
1.25359 13.5308 32.354
7.89519 12.7879 20.5428
9.69299 4.04481 26.291
14.9536 19.8646 47.0936
18.4115 16.0121 31.7446
12.0304 7.61732 9.24985
11.839 4.85392 24.0504
7.34439 22.2187 34.1558
12.2671 15.973 65.7421
14.9161 24.6412 32.1773
4.70901 14.6919 57.5624
20.2556 23.0512 51.7791
18.1633 6.58612 5.85241
10.6137 3.8432 11.4983
8.06656 4.68551 14.2548
12.2866 8.34126 11.2611
8.06353 8.57899 24.081
5.63365 2.94774 10.2896
8.32322 3.29383 19.2135
5.62896 6.43102 15.2619
4.36962 4.9832 6.24332
4.42854 4.6209 10.5474
7.8611 1.32148 7.2856
8.66135 6.73251 18.5165
4.68197 11.5243 29.2033
13.6934 1.32618 5.50366
3.77836 10.6758 50.6967
27.6713 16.6323 21.3761
14.7104 5.73345 12.7043
11.2288 17.0082 45.6988
18.8916 18.7825 33.7548
6.64284 4.83699 26.3924
5.08916 4.80145 23.9939
4.77652 4.86125 8.1518
5.24869 1.66146 23.3774
9.12225 11.9228 9.83484
7.56226 2.679 6.99779
12.749 9.54722 22.1064
3.99413 8.99872 8.82138
7.13806 16.3366 44.4936
7.69428 5.14136 17.6081
11.9027 7.49035 21.5982
9.87143 7.51844 26.0639
2.63529 11.9201 40.5461
18.8478 10.1569 14.5641
13.07 8.19504 24.4304
3.08983 17.9621 29.636
5.39449 4.522 29.0006
12.1611 15.5439 55.4464
21.7458 13.4649 25.1365
16.0685 7.48306 10.951
10.0326 6.25957 12.8473
9.41865 5.24813 19.0833
9.4535 16.0126 40.8624
6.90259 7.10835 18.6947
17.3696 13.5697 36.1093
6.15776 6.77619 13.7856
11.4999 12.5182 23.8065
12.0168 20.1758 53.8534
5.80729 7.32932 26.1475
14.2089 11.5816 50.3911
4.31391 12.9301 30.2296
8.294 7.06304 10.6043
5.46396 7.97202 21.6418
12.5336 5.34458 23.5003
14.1419 27.4221 55.8087
6.51316 2.54058 12.329
12.5763 10.9587 28.9305
2.65368 7.70506 29.2419
6.90256 9.56832 21.1781
11.354 12.2848 37.1423
16.0893 12.4652 39.1055
6.56722 11.1651 35.5776
3.89835 19.2549 50.9727
15.6598 8.64883 34.7143
14.9043 13.6071 27.7174
3.89242 10.9704 32.7299
5.26182 14.306 35.5011
18.042 13.3156 18.8023
13.4618 22.9324 60.6415
4.42546 7.74436 31.5915
1.97626 19.1383 39.8671
11.8476 1.96696 7.20823
5.56844 5.62314 16.2538
6.54252 13.4782 30.2515
9.3875 3.07863 13.4493
4.15287 5.76079 12.2785
4.53768 12.4556 57.1716
16.6038 7.34027 29.5933
15.4961 7.66665 18.5843
12.5594 8.37606 33.3779
16.5087 8.6582 8.13101
17.0887 15.8147 30.253
8.78997 11.5224 39.7538
2.71459 4.85246 9.01084
5.08501 3.75727 18.5333
5.34318 20.1249 66.0722
12.1685 19.1452 30.3009
16.698 22.6694 65.7723
5.00197 15.7414 60.5289
11.264 7.63366 9.87323
4.314 3.4524 5.081
4.64671 17.4 62.8938
9.49015 9.61298 67.5841
26.0866 37.6266 69.5848
10.1614 3.66553 34.237
18.6604 14.8827 41.7676
13.2785 16.1732 49.3349
18.5115 7.25174 9.42995
12.3132 9.26319 14.144
6.91984 1.46275 3.25545
7.05609 5.37288 35.4704
18.7616 32.7996 80.2243
3.55864 9.00652 27.3688
13.3607 13.4021 55.7618
9.22186 13.227 14.1286
3.80656 8.93484 10.3531
6.29165 11.2812 37.4979
11.3336 5.09181 17.5039
2.52717 22.356 95.4487
17.8321 12.8583 49.9601
21.8655 20.0427 34.0389
8.60633 11.4492 29.2723
7.48587 7.85682 18.7648
5.5459 4.33825 24.9925
11.7755 4.27384 23.958
14.8375 4.39689 7.47807
11.2498 5.23482 36.7236
19.3108 20.8427 24.2005
11.0714 26.8447 90.0335
16.217 9.1253 35.9768
20.2204 33.0906 93.7152
19.9501 28.2778 58.1878
8.40167 17.6385 43.6452
4.99384 15.1538 52.9829
15.6837 15.399 51.7583
3.68403 4.57957 10.8634
8.14092 12.7497 58.8948
14.2703 24.1652 37.5086
12.9272 20.8794 77.5338
4.69029 8.75942 20.6663
12.8849 22.5466 82.3702
5.49794 9.43009 27.615
8.09688 8.33571 19.5016
11.9104 8.47335 26.4292
10.007 18.2828 79.0429
1.63375 14.1183 32.897
7.48924 23.685 54.2287
7.81059 11.9454 42.5246
11.1148 8.40062 22.4607
8.45695 7.53234 48.6819
11.4977 9.93782 22.2834
9.19427 11.632 43.3815
9.60062 8.8653 8.25405
5.33824 7.59149 33.3589
13.1008 16.3464 56.5726
12.1353 20.3417 44.9488
3.01382 14.6932 41.1265
11.2569 8.11765 26.1252
4.74955 3.11506 12.2683
8.46924 9.50866 26.7519
10.1603 7.98529 33.3466
8.21001 17.738 63.1558
10.4976 16.0891 37.7266
7.01982 7.37144 29.3545
6.04853 23.2217 49.8998
10.3577 6.33835 23.2495
3.63508 4.66025 18.0294
4.64433 6.78027 55.0835
13.7758 17.6321 20.0156
5.21153 6.17749 31.619
9.00999 6.6282 23.0847
8.43491 8.31182 30.8276
12.5217 10.3856 24.7379
7.62458 20.1764 57.3502
7.78968 4.63001 29.7204
12.0648 21.7627 47.0078
5.98805 4.14112 21.6057
6.01421 2.77803 29.8995
10.4393 20.0078 58.4265
16.8404 15.9353 51.0095
4.84991 15.1242 55.8574
14.0178 15.7253 17.4317
6.53727 5.86167 29.6891
6.44438 8.6514 38.2581
2.54284 9.90482 12.3623
2.70363 11.0793 53.6609
15.3706 21.6338 57.6352
7.26619 5.69429 59.5819
10.531 24.9308 57.4882
10.0162 8.43448 39.2538
12.4706 20.6159 51.6778
10.6119 21.4931 42.978
8.55228 1.14912 29.0707
15.9793 25.57 36.1085
6.8232 11.748 98.2913
19.5889 23.7524 52.244
5.75322 21.2227 63.6404
5.26488 11.5338 29.517
7.32427 3.90726 21.1655
8.87309 29.7622 91.1644
6.36153 14.0847 26.714
9.16403 11.9846 38.409
5.13772 16.4199 93.0346
12.5114 8.97743 40.0967
15.7443 38.7672 107.803
9.68094 17.4544 35.8133
8.4456 15.9756 47.1547
7.59204 6.5614 47.4252
11.0535 15.6387 49.7479
16.1684 6.37145 18.2626
12.0116 6.8982 29.4417
8.97311 8.62014 46.2049
18.6727 24.6232 40.951
13.0984 19.4974 63.3967
2.39667 9.93997 41.5078
13.6017 19.3193 66.1396
3.00414 2.62038 47.2572
10.9263 21.8443 47.4613
1.53589 16.3932 16.6314
4.30463 12.6598 51.5706
11.1734 2.90524 18.8481
11.2237 19.9359 42.0726
9.97598 7.43614 39.3395
10.5863 10.5374 39.6372
7.47618 10.2494 30.3803
2.9388 27.5083 68.9162
14.2093 15.8322 81.2406
5.54694 2.22813 26.9434
4.23244 19.6134 20.2403
4.26823 23.1237 159.087
25.3541 27.9997 19.8463
7.14912 6.55564 27.5634
7.95421 9.6115 34.9321
14.9204 15.5092 41.1953
4.89645 6.74658 20.7483
6.10816 3.45648 11.8488
10.5918 14.3918 65.9625
10.1192 23.941 60.2602
1.9588 13.4641 55.297
13.1849 13.1793 47.6082
7.99433 15.8028 79.5497
12.6927 6.78809 37.5661
14.7935 14.5946 13.4207
7.86693 7.51323 26.0493
7.33141 5.4172 19.9867
7.49449 12.1165 24.3083
3.83227 8.52145 45.7445
8.8846 5.32468 17.9208
4.51723 2.99298 26.325
4.25732 1.209 19.5392
7.04419 21.17 124.852
19.9333 14.6071 16.0795
7.19837 12.8817 20.3245
10.3121 8.39651 13.8144
7.45636 8.425 19.7415
4.73358 4.22622 24.0097
5.59017 9.86173 124.517
29.1487 53.5071 69.6682
2.49553 11.2141 46.5057
5.01882 2.87055 12.1019
5.28687 3.36993 14.681
6.01994 6.59172 29.2457
12.3249 11.1706 32.8651
4.0557 2.72572 49.3746
16.5303 25.6547 61.991
1.24322 4.86119 9.48935
7.48644 17.6974 78.6575
5.21598 9.11378 30.703
2.07272 11.5789 49.249
8.96324 14.9942 25.7959
6.5465 9.93773 50.5915
7.57037 7.92229 38.3322
8.40618 15.5376 54.6607
6.26369 6.67698 5.32589
3.36533 9.8242 39.453
8.94265 5.7444 63.8943
21.0966 28.3027 48.9371
6.344 5.99691 15.7157
8.4132 22.5657 46.2905
7.46127 11.4669 45.612
5.63489 9.89343 19.7694
7.47467 10.8417 72.1936
6.78995 13.9111 28.7584
10.8262 13.3479 64.7194
10.0666 8.70029 46.9344
6.61773 6.11792 35.827
9.46286 17.6829 25.4294
5.21318 16.5284 45.6294
3.42535 6.32068 85.671
6.31296 22.4105 26.7194
4.88134 3.91081 28.9974
2.25761 20.5532 79.8785
13.282 2.96489 17.6655
4.59489 17.6598 26.9942
5.07597 12.3201 88.2876
19.3074 8.62188 10.5739
8.55796 30.3137 82.0628
13.0835 16.2249 90.3958
8.10721 22.5956 109.138
21.9958 23.6558 44.6347
2.28123 6.91605 61.7211
11.6833 28.7882 47.5547
3.84467 6.94916 30.9356
9.65203 6.26462 36.2648
12.6737 25.0657 66.6765
12.5549 5.66364 22.2867
9.03307 11.6614 17.0807
8.8496 14.9589 60.7994
3.03353 14.1957 62.6852
5.59845 10.4394 76.7856
14.9638 22.0907 18.8404
9.08289 15.017 38.9275
3.89945 10.8548 113.232
9.11197 10.8229 13.9551
6.1627 15.2428 43.5648
5.47325 2.23235 28.2528
7.19514 9.23733 49.7115
12.7184 19.6475 52.0744
1.90205 29.5176 128.582
21.1273 11.1123 23.4208
8.72019 10.1266 58.1327
4.57146 17.5381 32.9183
8.71887 9.55664 30.7674
10.0247 14.2776 29.9534
8.6705 18.9338 79.9931
8.77452 8.39415 44.6093
6.12437 14.507 132.365
29.1499 28.3055 25.9198
8.73949 17.1048 33.8929
2.75085 2.19019 30.6515
7.46747 8.85914 27.5135
3.47126 4.02318 57.0429
13.372 19.2155 49.5697
4.01697 10.9663 21.6019
3.12356 2.2225 21.3567
2.95328 15.6424 30.3274
9.80702 15.7154 75.4012
14.7603 14.1741 37.0112
8.54593 2.16675 24.6781
9.94731 13.8458 28.7051
5.76537 9.98443 107.451
23.1568 31.6482 50.3157
8.29107 6.82828 10.6329
8.9789 14.1429 62.3074
3.48602 13.71 57.0204
18.7594 20.416 30.3527
7.55355 16.3668 67.3313
5.80541 16.8781 33.7445
4.30507 9.93099 27.0527
2.51302 4.5097 41.8861
15.325 37.1772 75.6455
3.62032 14.4265 108.253
6.34446 12.2064 49.4703
2.86026 4.69928 33.8964
4.61813 15.8569 34.7525
0.566979 18.9572 74.0014
11.9246 10.173 38.6971
3.60663 13.4809 72.8854
3.49498 16.4712 73.6612
5.49067 23.3457 68.4446
12.1406 27.03 78.6569
6.77323 7.9979 53.2689
9.28482 21.3575 87.6948
14.5323 16.6068 66.1001
6.37892 13.4001 36.0207
6.33489 12.0291 33.7279
3.63293 9.7648 8.21702
4.40319 20.9809 142.361
23.9032 28.9045 42.2643
3.53113 8.08862 31.6235
4.03911 4.62808 61.5662
17.3479 28.6497 72.4631
1.30773 5.64934 39.1749
8.1136 16.4786 138.429
2.52921 9.18408 57.8368
3.32428 37.5976 117.784
19.7991 35.5668 144.128
4.9349 29.2262 29.0002
1.56485 20.1806 29.6713
6.63177 12.9186 120.865
19.3041 37.427 102.84
8.2644 1.55747 77.6061
6.96764 15.7335 12.8212
7.76858 38.4924 138.778
14.0147 13.1529 47.5186
1.99035 26.1289 88.8548
9.56251 23.6904 145.019
19.2574 26.7777 47.338
2.40059 12.8532 51.6993
10.178 7.94517 61.0195
13.766 26.5809 70.2203
1.88131 18.8242 33.9971
9.02327 16.1653 56.1297
5.31036 3.12921 23.5983
5.64153 14.7481 32.9289
6.98335 8.23276 42.2765
7.11215 16.3209 147.211
23.7286 22.197 19.0076
7.74352 14.5565 51.261
9.81072 5.09616 46.3445
9.79997 17.9839 84.4088
14.3365 17.716 23.9554
5.85791 6.42139 44.7283
7.59946 10.5539 11.8692
5.65486 7.98006 46.9923
2.44635 4.8104 12.9324
6.02623 7.54351 37.1807
12.8095 31.284 119.18
2.40586 6.24153 35.2887
2.63294 13.2484 63.5972
10.1354 16.2775 35.0879
5.36802 9.23668 20.7421
9.45159 12.2751 93.1142
1.89659 24.8237 40.4468
9.05788 1.9117 36.1815
7.37184 26.7496 105.161
17.0805 4.49199 91.6969
20.9483 36.4271 37.0027
3.13012 11.9788 60.2301
6.53067 8.91086 87.3649
21.6519 32.6574 86.9142
11.7515 30.9392 41.5675
2.91152 13.0226 98.6875
10.5298 17.4221 77.7918
6.84407 14.7641 107.797
9.75544 57.6305 112.563
4.10817 1.97621 53.1223
8.33349 25.9985 94.1156
2.99737 18.1201 33.8124
5.9285 4.13994 15.1523
3.16449 5.05242 27.4789
3.40374 6.12079 36.3854
1.68677 5.52628 40.8798
3.29797 21.0475 46.7254
7.28767 2.37379 11.1309
4.60308 5.46328 34.431
9.61416 11.5962 56.788
1.8924 19.7164 64.544
11.5485 26.571 76.2895
14.746 10.657 61.7932
12.0616 6.48646 35.7167
10.7007 14.4453 39.9061
7.00291 4.58292 26.1021
8.87094 30.4054 111.281
5.70596 7.2799 42.902
6.66525 17.2717 50.8821
9.11773 14.0231 23.8047
4.64567 11.2992 68.7257
7.17484 25.0487 55.2558
4.4857 8.22269 42.271
2.46602 4.52515 29.4102
4.599 24.7792 56.8845
5.69331 8.11388 45.3832
2.62242 7.88256 97.4848
3.74349 11.4268 38.0358
4.88822 10.8152 44.0398
5.55086 4.79764 118.865
8.51176 40.3576 69.5551
14.3291 5.73253 30.1253
2.30823 10.5742 22.5183
8.33624 11.5144 59.2727
9.25918 8.42816 72.6434
6.10918 10.8332 40.4963
6.67862 11.8933 29.4953
1.77495 8.06137 90.6551
15.5646 26.5915 48.1427
1.68611 17.1673 16.2753
4.67256 11.9359 82.1833
9.30336 13.364 30.077
8.94314 15.936 36.1711
7.24713 7.85381 60.0848
6.57462 2.64149 56.9131
10.2421 15.6012 24.7831
4.26777 20.4941 111.818
15.2213 16.5298 10.0259
8.40755 28.6536 153.986
11.066 20.5752 36.2864
4.04182 7.71395 20.4332
5.43795 13.7429 122.623
4.78015 17.8696 72.8484
15.914 65.7474 174.947
5.91055 12.8826 125.395
2.29701 8.42264 37.2926
1.97208 5.35195 76.4612
1.2627 14.3892 62.1627
0.884559 23.4482 94.0941
5.17754 25.0951 55.2249
6.82905 10.2417 43.6597
5.17086 10.5158 93.4354
4.68673 36.0855 76.8819
8.01355 18.5477 34.3407
5.96361 14.3175 75.2083
13.0311 13.8052 50.4212
12.367 14.9134 58.7246
8.80195 14.1965 76.2446
5.10244 14.7709 12.0312
3.92825 23.1166 192.365
20.4601 36.4365 54.2648
10.2416 1.64983 31.6163
11.2368 19.9983 65.4817
2.61077 9.68408 53.0855
7.17609 11.8415 30.1293
9.43513 11.1051 12.1478
4.39763 8.33019 46.4806
6.60941 1.96344 44.4379
10.4653 29.3874 100.24
4.57082 17.6952 41.5604
8.27236 8.58702 103.524
11.7977 26.8917 34.1775
3.2082 4.48438 28.679
10.0301 9.0622 20.7292
1.79455 21.1077 92.1631
8.01546 11.0252 40.0187
7.51411 23.337 89.2495
8.13746 20.5047 124.979
14.1514 14.6322 34.0165
11.1237 15.294 88.059
6.10347 8.71091 76.3354
6.0987 13.3901 3.84531
2.70364 10.1709 60.016
12.695 17.7964 58.8011
7.24908 7.727 21.0418
5.62018 9.78672 30.785
5.66699 11.7983 66.4291
5.55743 15.6017 49.3122
8.69449 30.955 106.501
16.8882 2.31063 8.80351
6.3257 1.85815 69.0219
14.8529 35.3877 186.226
12.9774 25.8052 78.6693
15.1375 23.7363 111.511
9.89892 41.8539 97.486
13.4044 19.5713 41.8503
1.11001 9.18536 47.7
6.69683 11.5454 47.8134
2.51977 14.2639 63.5335
11.8655 7.94742 43.1354
4.85979 22.9789 81.4889
8.87276 17.0906 22.8027
4.13363 5.46439 14.3148
5.42045 12.4664 35.5743
8.05264 4.91926 58.5082
8.8397 13.9406 35.2093
5.37451 12.6499 37.6645
3.42853 10.2687 63.7161
11.4177 29.536 133.497
20.2807 30.8008 61.5052
2.84007 17.2825 88.5153
13.3368 6.25919 9.9204
4.14426 5.80902 82.8673
16.3317 39.1744 93.5591
1.14615 3.47771 89.9813
3.93879 17.1428 26.5728
5.97733 7.88013 95.7891
8.4404 11.3283 17.0505
3.75968 8.9274 50.9199
0.888328 15.0062 65.3179
10.9163 11.6055 12.9675
2.67318 14.7761 103.389
4.85636 24.5883 60.0859
6.55811 10.9782 33.4249
8.22931 6.72516 21.8264
3.22932 4.45709 24.4287
3.35872 9.73341 85.5879
14.4637 19.7448 28.323
3.67955 3.4241 39.9865
2.45675 6.6921 85.4171
1.15302 60.9293 170.527
25.0238 32.2727 76.9868
4.34329 14.6321 152.37
11.7418 17.3365 22.9099
8.06062 9.67003 33.1266
9.79209 13.4064 85.1702
4.29995 8.73951 22.5804
1.12392 14.1217 26.0868
8.86075 1.26328 32.9301
8.88632 18.4974 35.4834
5.06014 13.9536 85.6025
3.03608 3.45519 47.6288
1.29597 6.96377 73.4325
1.83045 27.7568 57.3478
2.3745 39.0099 45.3204
8.76314 24.1385 104.826
17.7977 16.2979 47.8208
10.0903 2.64883 72.3865
13.0638 6.5067 100.028
10.2681 31.5547 54.5186
11.7625 8.42965 89.9583
11.0401 35.9209 70.2512
5.33737 4.02524 60.1305
2.85262 15.8103 27.9432
4.64244 28.5795 119.743
18.8647 11.1971 57.18
6.52621 32.5319 126.813
14.1989 6.75688 27.7677
8.55339 10.9502 20.3931
5.39092 3.61563 7.47192
2.55843 4.31426 19.3745
2.75294 17.3199 68.905
12.9272 7.92306 45.4135
6.0887 5.55483 14.3682
2.83292 13.3176 75.9259
12.7972 18.5213 66.3163
13.4572 6.61967 43.1121
8.18182 6.26205 8.29463
5.04183 7.20907 24.057
5.8413 20.6971 91.6086
16.3958 26.7614 95.3539
9.8784 6.99949 47.1369
12.4719 9.31165 88.9198
10.0965 18.2991 29.0446
5.78855 2.17921 14.0577
7.33682 6.90085 11.7805
6.43933 8.93727 37.9683
2.52042 8.83841 56.1709
2.97596 16.42 32.6333
9.14564 2.56308 25.6958
4.94685 0 0