# pn-170911/RbIIR-59-KOKB-1280-1959.psd
# Power spectrum* (dif=0,1,2) (really just |FT|^2)
# NOTE: only the first half! (symmetric)
# weeks: 1280-1959
# 7 clock-days, 0 excluded
# PSD: 1441
110.32 0.0940831 0.0117431
17975.6 0.603884 0.00929981
83111.1 1.45195 0.00908657
13084.3 0.584645 0.00988628
94330.5 6.87424 0.00926301
5038.78 0.414873 0.00925136
4323.02 0.939168 0.00992892
3824.3 0.41527 0.00933759
8496.17 2.24646 0.00914255
1058.86 0.405902 0.0104406
1608.84 0.828974 0.00978902
998.393 0.754256 0.0112569
1495.13 0.899003 0.00920701
1387.31 0.62286 0.0102714
1878.57 2.0164 0.00987898
543.486 0.354555 0.00950572
994.608 1.3498 0.00961821
767.865 1.1516 0.013265
882.833 1.4374 0.00895201
626.232 0.745393 0.0105664
599.589 1.02755 0.0119575
886.429 1.40067 0.0141196
497.889 1.29075 0.0142766
744.073 1.13167 0.0152116
287.804 0.534637 0.00746516
274.658 0.882704 0.0135875
299.529 1.26431 0.0164864
750.251 2.18707 0.0185092
409.598 1.63324 0.0213253
376.721 1.19574 0.0116795
219.888 0.974379 0.0126032
226.474 1.08966 0.0136725
412.655 1.74899 0.0214604
175.155 0.943642 0.0145794
310.639 1.6389 0.024857
407.36 2.16033 0.0208817
329.128 1.14366 0.0197079
210.887 0.866537 0.0234867
243.562 1.87159 0.0218913
416.244 2.67085 0.0180881
215.357 1.81746 0.0209596
255.574 2.20049 0.0301907
384.66 2.8272 0.0243503
308.671 3.21278 0.0298717
551.659 3.68353 0.0458321
138.479 0.803307 0.0188443
372.786 3.37203 0.0543527
203.018 1.69574 0.0262699
179.87 1.93533 0.0219801
140.269 1.89175 0.0403624
260.469 3.3035 0.0480943
343.532 4.14428 0.0607889
208.859 3.204 0.061761
259.498 3.8464 0.0701573
69.8339 1.07604 0.0186591
282.088 3.44933 0.0473326
218.517 3.4668 0.0483464
373.783 5.30644 0.107026
134.307 2.17501 0.0410696
245.629 3.87439 0.0901001
199.77 3.23559 0.0600392
266.202 4.45665 0.107236
257.444 4.03048 0.0773423
131.489 3.08442 0.0471058
145.131 1.97225 0.0376501
200.519 3.69401 0.101831
255.471 5.37471 0.102269
146.809 3.36858 0.0973897
235.365 4.32162 0.0988202
199.566 3.24836 0.0895346
168.31 3.94016 0.136359
379.308 8.93368 0.225104
170.433 3.85634 0.106053
295.484 7.16957 0.200395
218.931 5.88926 0.193788
259.814 6.43691 0.210415
239.002 5.79494 0.130575
83.2842 2.98361 0.0909068
280.051 9.31884 0.289659
201.064 5.93464 0.180289
269.982 7.79386 0.244188
251.482 7.33465 0.2777
156.289 5.7347 0.151831
165.55 3.81536 0.11636
190.781 5.93944 0.196225
258.466 7.79375 0.256835
244.103 8.44653 0.384051
266.366 9.12838 0.287486
165.905 6.04849 0.197912
149.098 5.20915 0.207926
177.996 7.61607 0.327497
120.06 4.06331 0.154614
313.506 12.7308 0.469628
159.38 6.22694 0.30703
240.691 9.81983 0.424494
176.534 7.53466 0.355829
276.771 11.2623 0.524944
248.951 10.5171 0.550603
162.483 6.87392 0.348167
121.611 5.91107 0.284225
210.67 9.9387 0.452784
205.776 10.4382 0.461455
180.172 9.8058 0.519397
165.24 9.24676 0.459738
311.166 14.6011 0.712204
100.57 5.34422 0.358743
172.991 9.41794 0.456047
182.995 10.1215 0.567257
96.4109 4.86455 0.259336
218.672 11.7738 0.645871
282.468 18.3996 1.07362
273.456 18.8293 1.11921
175.264 8.69716 0.54884
97.1126 6.32005 0.422415
114.4 7.23866 0.479703
225.052 13.7937 0.828909
254.797 13.2474 0.699132
249.842 16.2627 1.06815
92.1755 5.69037 0.422359
203.376 13.8091 0.944027
86.5331 6.13741 0.47231
253.361 17.7844 1.25178
80.9917 5.67932 0.471072
198.759 13.9894 0.970631
103.163 6.23743 0.513432
126.786 8.18768 0.626198
122.725 8.40962 0.626515
160.874 15.432 1.22363
153.551 9.44676 0.717819
138.075 9.94224 0.774296
93.7566 6.6605 0.581273
143.179 11.0407 0.930233
85.8756 6.74296 0.627455
83.8321 6.51969 0.529385
167.939 14.9362 1.31729
245.898 19.9258 1.66745
240.009 22.6388 2.09827
156.626 13.1804 1.11096
150.73 12.1838 1.18614
160.352 14.6442 1.304
186.147 18.1571 1.81539
112.235 9.8011 0.875029
98.72 10.3125 0.96462
153.798 17.3613 1.59193
198.739 19.8544 1.87461
138.104 13.254 1.30999
134.217 14.1004 1.44138
82.892 10.5932 1.23992
90.091 8.32982 0.769983
91.7809 9.28948 0.9556
231.871 23.0336 2.36778
51.4037 6.10942 0.793584
123.949 11.5328 1.28988
99.0913 11.141 1.33656
102.684 12.3035 1.32859
131.938 13.4394 1.5326
126.095 15.3586 1.79084
106.328 11.735 1.37849
189.996 21.8078 2.39383
125.248 14.7759 1.65976
110.45 12.5335 1.50104
79.8669 10.7406 1.34509
107.471 16.8704 2.20562
93.0213 10.5856 1.35656
92.504 9.94875 1.25597
170.62 18.9207 2.0835
228.244 30.9396 3.99466
77.3244 9.98189 1.42672
74.4673 9.68055 1.3055
111.725 12.219 1.54157
143.58 17.6694 2.26176
118.322 18.4272 2.80532
127.972 16.4241 2.24159
43.067 5.22204 0.706518
99.8271 13.7166 1.86063
80.9853 14.345 2.22569
104.391 12.7009 1.90359
71.6511 10.3891 1.51516
68.9243 10.25 1.57363
151.557 19.5535 2.69505
111.628 17.1393 2.663
62.7554 10.3637 1.71302
116.942 19.2237 2.93778
17.3421 2.37193 0.44243
102.388 14.875 2.48198
45.3424 7.48076 1.34249
141.226 20.759 3.11612
69.8048 11.1704 1.93987
97.0282 17.4014 2.88712
49.5514 7.34254 1.15815
109.389 18.75 3.21684
69.6199 13.6771 2.4016
206.75 33.9822 5.67547
49.0446 7.2644 1.27912
119.635 20.8111 3.60967
47.1106 8.33387 1.39971
73.3406 14.7954 2.6587
98.7817 23.5123 4.614
110.062 16.1352 2.80276
122.417 21.2285 4.07391
50.1999 8.60912 1.74825
100.5 14.9914 2.63041
128.882 25.4342 4.86502
95.3428 15.7469 2.84015
69.211 14.9988 3.16893
91.4349 18.041 3.48625
110.311 23.5919 4.58179
29.3643 8.54302 1.92493
33.3112 7.52587 1.59238
87.1221 14.4807 2.98085
95.9107 19.0153 3.69251
29.3349 5.25474 1.17576
42.9854 7.08181 1.35632
69.5525 15.2557 3.41454
62.6499 14.3528 3.15364
43.1422 7.79402 1.61725
91.6556 18.2369 3.71245
86.6791 18.9151 4.41164
75.7304 15.0236 3.12099
72.6573 12.9878 2.68572
59.4925 12.0938 2.68011
46.3457 10.7862 2.72739
46.9668 11.7203 2.78812
71.6588 16.6052 4.11884
59.4426 12.6497 2.9936
110.983 28.4567 7.24745
68.9585 14.1659 3.05627
69.4404 16.9801 4.13604
55.7447 12.4931 3.05573
96.8583 25.874 6.64113
66.3537 14.5211 3.24886
80.2837 20.1516 5.412
28.0515 6.12579 1.56141
91.3313 22.7181 6.36761
44.3876 11.2436 2.55695
122.212 32.7155 9.20109
90.8155 20.9387 4.91981
73.2977 18.3583 4.57249
46.5833 10.17 2.58024
120.503 31.6858 8.70278
47.828 14.1258 4.02434
61.139 15.2259 3.80483
38.4217 10.7464 3.0361
37.8879 10.0906 3.15455
80.1022 21.3826 5.68275
86.3723 23.0373 6.45061
76.4997 21.2252 5.94402
39.0294 13.2248 4.03684
25.0433 6.86051 1.9541
75.4453 20.7942 5.64231
51.5709 13.161 3.71606
18.7546 3.94824 1.1091
59.208 17.305 5.25175
90.5132 25.141 6.38571
28.6883 10.3133 3.85714
28.447 9.70118 3.0728
63.7614 16.4055 4.13175
81.6411 26.9508 7.8076
54.5896 17.5861 6.11792
66.5242 19.301 5.5296
46.0014 14.635 4.68864
49.205 16.9008 5.59672
71.4767 19.4837 6.59628
56.7403 16.2423 4.37224
41.6718 15.3048 6.48808
69.2217 19.0245 5.11045
26.4395 8.42611 2.15268
26.3693 12.4063 4.57179
65.3653 17.8947 5.27579
39.6454 16.1351 5.95333
59.9456 16.4796 5.29988
58.862 20.8626 6.50143
54.768 20.5237 7.93793
17.8916 5.82402 2.24465
50.8966 16.9382 5.38827
34.5797 11.4063 3.74671
32.6086 11.7351 4.08693
49.468 17.8589 6.89011
20.858 6.4583 2.759
77.5238 26.2474 8.44036
43.0487 15.9051 7.22815
30.8832 8.35334 2.69668
87.1803 30.1327 9.93694
29.1853 10.8037 3.75437
47.1035 18.0915 6.77645
28.284 11.5924 4.19355
28.813 14.5565 6.15607
43.1706 13.7803 4.70264
57.8114 25.1018 10.7102
41.2862 11.1338 3.32126
55.0201 24.8103 9.90536
74.7724 24.8671 9.82749
51.1404 20.0559 7.31446
40.9477 15.0495 6.23637
39.0034 15.0582 5.16617
54.2422 24.1418 10.2223
45.1735 17.4867 7.39516
32.1894 12.5261 5.30519
62.684 22.3261 9.40365
23.0057 8.56203 3.6021
38.1364 15.0447 6.54442
40.4825 16.6941 6.59215
39.1345 15.8579 6.78844
44.164 18.208 6.91446
56.6802 21.9558 9.76403
58.3944 23.0582 9.72779
62.1467 28.0331 12.9519
38.3103 15.2826 5.76804
80.7209 39.21 16.9566
37.2899 19.0597 9.3842
80.6904 35.7161 15.3932
44.5741 18.6037 9.03584
47.0675 19.4485 7.9767
55.3759 24.584 11.9928
29.3654 15.0454 8.08133
56.7774 23.8609 10.0705
24.3497 10.6817 4.35423
42.7152 17.8123 6.70651
30.6907 17.3196 8.43943
54.3231 23.4643 9.78749
30.1251 13.8171 6.84001
40.0492 19.4833 8.23366
16.3744 11.094 7.29309
89.3568 37.93 16.3793
28.7186 12.5494 6.18698
42.6374 19.8582 10.1127
54.9259 26.1175 13.4259
47.4131 17.763 6.82822
22.1151 9.8098 4.9238
34.412 19.3982 11.8708
29.2475 12.2853 4.87403
43.9048 19.7597 8.65116
28.4513 17.9222 11.614
62.5095 27.4282 10.8109
28.6988 14.1544 5.88311
23.5803 13.9958 8.00158
26.5227 12.8443 6.97589
29.287 17.9546 10.7664
44.7364 22.4849 10.7301
48.758 22.974 12.0155
42.6189 25.2017 14.8247
23.7985 11.1137 6.00987
27.205 14.6438 7.99646
43.7781 23.4003 11.0398
46.4025 30.8165 18.4611
32.0001 12.9145 5.68698
26.8213 13.9807 6.62192
25.7015 14.4815 9.42274
20.7025 11.0392 5.6909
26.937 14.5354 7.79135
36.7408 20.1806 10.9437
16.4265 7.301 4.29955
42.5983 23.0446 12.7191
62.522 35.1862 19.2308
30.1847 16.6667 9.59031
22.2553 15.1522 10.9012
61.444 38.4267 21.5137
42.8116 24.8145 15.9138
46.4229 22.0271 10.7509
30.6382 13.5992 6.81171
36.9537 22.8675 13.2941
15.0787 9.8035 5.78294
15.7748 13.4153 11.1554
34.8722 16.8331 8.59628
22.4218 11.8182 7.73048
32.0252 17.8173 10.6272
28.3357 17.4275 12.0929
35.519 18.2301 8.36566
17.7767 8.80487 4.32445
16.0766 11.261 7.26619
9.65678 7.13614 4.9794
32.984 22.2226 14.9056
39.8504 23.834 13.2285
17.7509 13.0459 9.85873
34.2963 20.0034 10.1603
39.7831 24.1052 14.7944
34.9939 24.5946 15.2333
28.3547 20.438 14.4186
19.489 9.01266 5.0645
33.5712 24.2458 16.9951
27.9108 17.3952 11.5661
16.2681 11.3545 6.85879
25.6241 16.8042 11.7621
25.5783 20.5188 15.1876
49.8421 29.3514 16.1262
16.876 13.4587 10.5309
28.5494 19.63 13.7884
48.9295 28.303 16.7414
34.1191 22.8179 13.765
21.293 15.9081 11.6488
7.91652 7.94933 7.12488
15.6199 10.7476 9.83747
36.1819 23.5691 16.349
38.5013 26.3553 16.6763
45.4636 34.8877 23.2591
15.5031 9.94851 7.79511
24.812 15.551 10.41
33.9411 22.1192 14.0345
24.3738 19.0413 14.6525
25.0204 18.9095 13.3135
20.4935 13.0996 8.94228
17.0923 14.3284 11.6644
39.4023 26.2592 17.1627
25.3774 19.5687 12.2496
16.5017 17.1195 14.3865
24.5659 13.8965 8.5708
21.8888 18.2198 14.4702
25.6351 15.6677 11.2458
18.5484 12.6125 9.60922
18.5168 13.7311 10.3922
15.5912 9.45999 7.40675
22.267 17.6555 15.0511
42.7175 27.2485 17.4059
8.80648 8.43491 9.99486
13.0597 7.5469 3.5776
16.2016 14.8731 12.5385
28.723 21.1941 12.2636
10.4902 11.4135 10.3191
32.609 27.2431 21.7575
24.1387 19.1972 15.0567
18.5052 14.3325 10.2587
15.6373 15.2843 12.9825
26.3239 18.6764 14.3006
26.4963 14.7241 8.50492
19.1038 16.4824 14.1363
22.9909 17.1761 14.0221
17.1985 13.2276 8.65738
31.4438 34.4657 31.9699
23.7119 14.8404 9.68579
18.4117 17.6789 15.9651
18.0366 10.3786 6.10006
16.9693 15.9422 15.7266
24.6522 17.2115 12.0311
23.5635 20.3172 17.8443
8.43382 8.7524 8.59675
18.0524 15.9928 14.4214
22.0336 16.5446 12.9769
15.9404 13.4285 11.9492
14.6724 9.63951 6.30219
20.0657 16.3029 13.3383
9.09284 9.51532 9.54773
13.5111 9.99973 10.5298
28.0148 20.8457 14.5113
11.9705 14.3856 16.9861
24.2349 17.8343 12.7578
17.5127 17.6008 17.9037
13.3116 9.18254 8.96964
17.5258 15.2117 12.8848
18.9511 14.4715 11.4512
24.3805 22.9482 18.2675
12.3048 9.52238 7.80238
23.2405 23.2227 20.0333
23.2555 22.1048 17.7908
28.7725 27.9401 28.6996
28.3722 22.4192 13.9435
9.11972 8.54884 8.74356
15.1401 13.4488 8.05367
16.1304 22.0317 24.0741
35.9882 31.8449 23.9098
20.0274 24.7582 25.1542
15.2254 12.1603 10.5428
14.37 16.7147 19.0185
16.0189 10.8785 9.09515
19.5518 19.6956 18.2868
12.9322 12.7983 12.2241
17.0762 16.8639 17.3587
15.9339 11.9953 12.8702
30.6356 29.8333 30.0699
15.5777 16.5662 15.8509
16.6242 15.9682 17.6486
24.8733 17.8993 11.7685
15.8026 15.3694 12.511
12.2928 12.0728 11.6628
8.97716 11.454 13.6096
7.63263 7.4096 10.5836
23.771 20.6606 17.5368
12.5135 12.2825 11.2021
17.818 18.101 17.5982
18.7026 22.7778 23.8246
12.3224 11.2607 14.0042
33.2761 31.8779 23.2625
10.0026 12.3227 12.1015
15.62 23.0839 28.4858
24.0307 18.0789 15.9594
22.7314 21.8033 19.6071
13.5196 14.9626 16.6366
20.7134 18.0386 13.0883
18.9191 23.2008 21.4378
12.3534 17.992 18.7014
14.0264 19.8758 24.3922
17.9348 16.7456 15.5768
9.57081 12.8288 17.9169
32.5397 34.6766 34.8986
23.6618 24.0108 23.6078
13.702 16.7921 18.8787
19.9567 25.0244 28.506
13.6855 15.4141 20.7488
23.6864 16.5493 12.0078
13.2227 15.0949 13.1569
19.1192 29.3122 37.6998
21.1848 16.9239 16.2737
13.319 11.989 10.2011
13.6973 17.7191 20.9843
22.4622 29.049 33.5345
9.77019 5.69682 5.79434
22.354 25.0457 26.4426
14.6765 14.5042 15.5865
10.2861 11.6553 10.5783
9.53254 15.7933 18.8219
12.8304 10.3854 8.11813
13.9658 19.5418 20.3683
7.47672 13.3396 19.5335
10.8365 12.7912 18.6365
14.6774 11.6129 11.7186
13.5589 16.5126 20.0325
25.9552 28.2087 23.6418
15.0001 17.8832 16.4624
11.5648 25.7364 37.7106
22.4348 26.5344 27.6345
9.92676 16.1495 23.9839
14.0101 13.98 17.6306
11.3903 12.5903 17.3739
10.5906 12.7842 18.5726
19.5125 14.937 12.5247
13.3186 19.372 22.5991
8.36045 10.6746 16.903
10.475 10.3773 14.3635
22.437 20.6808 17.8607
9.79029 13.4826 16.3747
11.6987 17.1524 22.4519
9.14338 6.2595 4.06305
9.27721 16.2553 21.9692
12.6355 14.3307 17.4903
10.0094 12.8226 17.3024
11.5584 13.9937 17.3834
12.7342 16.6627 19.8485
9.58178 8.39947 9.17944
8.93221 16.9251 27.7739
18.4543 21.373 28.094
16.5942 16.7027 20.147
9.65457 7.62125 7.82158
10.5029 12.0876 13.0594
10.5173 18.2606 28.9605
20.2914 18.5297 19.7574
18.9342 21.5081 22.3599
12.2238 13.884 18.2125
7.66591 8.32668 9.19921
7.99918 11.7534 16.0373
7.71603 14.1287 25.0031
13.5846 10.0865 12.2611
10.8567 12.9454 22.2996
23.0057 20.3563 16.5433
22.6385 27.9827 29.8224
8.79354 11.7284 14.0073
8.51725 12.1064 17.4829
10.8815 10.6665 16.5947
23.3074 28.324 33.5359
18.7966 22.8699 26.8097
8.77893 12.3663 17.7965
15.3974 24.7735 32.3884
15.0816 17.8338 23.0461
13.5155 21.3131 36.7472
12.0444 13.8571 17.7528
10.9397 13.8509 18.7737
14.5994 18.7364 26.7458
13.4234 16.3259 22.3206
20.901 25.3469 28.8789
14.2674 20.3679 22.1471
6.46383 11.1456 17.281
4.32623 4.51276 8.60452
12.0544 15.6607 21.2859
11.3839 18.7163 27.068
14.3061 17.7684 22.5058
14.1412 15.9201 18.7501
8.8562 12.4466 14.4534
4.01611 8.83703 16.2069
8.84614 15.4316 29.9016
22.3692 25.5189 32.0019
8.90885 8.42266 9.11994
5.57835 8.06729 9.6749
8.52292 12.4383 15.3068
5.56486 5.62453 9.02875
8.45445 12.9751 16.8476
9.67117 11.8003 14.1754
11.9048 18.3523 24.9739
4.53918 5.68391 10.1986
12.3319 20.5671 25.5961
8.89802 13.9207 21.0086
5.58317 8.64193 13.5076
11.6569 23.1495 41.463
18.945 22.4334 25.9934
9.28653 15.2297 21.6364
4.7466 5.23362 11.4214
10.047 13.3967 22.5186
16.6276 16.8928 18.1573
13.3531 24.4461 38.1574
13.8285 22.0782 37.4909
9.30406 9.561 11.6381
5.92041 8.90449 22.0782
17.9961 18.0453 13.0069
9.57434 15.0854 17.0635
10.0778 18.9552 25.9419
5.45222 10.1459 19.6738
4.5273 6.02012 15.9097
14.7302 20.9051 24.6702
6.95476 10.5298 17.2955
8.38047 8.26102 9.9474
11.1553 15.1145 16.7038
4.74778 10.4293 18.2993
10.0385 14.8998 23.4946
17.2658 28.1223 41.3179
4.05198 6.22535 14.5245
8.70199 15.7839 24.3079
4.9954 6.00723 12.0103
4.60224 7.51154 12.6357
7.19031 9.5512 11.7841
7.45962 12.0202 13.7645
5.2198 13.3866 22.9
7.15323 12.0078 21.6561
8.13133 8.06085 10.1234
5.18058 8.95947 14.7083
6.68355 11.3325 20.2493
10.8158 15.1746 25.4218
8.33945 11.3728 18.0503
11.9636 19.1856 24.8957
7.28118 13.8566 22.9091
4.08368 7.56063 18.414
11.0284 16.8352 29.198
6.70984 6.55377 9.37465
6.61036 9.64799 16.5632
8.23801 13.719 17.2872
7.45879 14.0214 23.2706
8.69708 15.9856 22.5283
6.00194 11.9429 21.1526
4.70888 9.58662 20.9279
4.34801 7.10861 20.2494
8.55485 8.42604 15.6509
6.67482 6.35265 10.0376
5.20639 7.13972 24.0753
19.642 26.4457 33.2245
22.1053 36.1933 44.198
11.1146 21.2933 34.7681
7.07488 15.4124 31.8654
7.84546 14.9663 27.1369
6.65331 8.403 18.4828
10.5484 18.618 34.8405
7.33085 6.21477 10.3853
8.09684 10.5846 15.7994
6.58663 7.71531 12.2129
7.00362 11.772 19.4644
5.10733 6.59682 14.0037
15.4825 25.4809 44.5591
9.61157 13.1145 21.3494
14.2858 21.1969 28.3968
8.98868 16.9611 30.9984
9.34998 29.0955 99.1487
55.9498 80.3557 96.6148
23.4592 35.9509 42.7856
6.88033 16.1498 31.7333
12.5422 23.0759 42.7807
4.14025 6.67415 23.6363
15.3117 18.4595 17.7431
4.33786 7.94812 15.0445
6.98517 12.3858 17.3527
4.11251 7.39219 15.923
11.623 22.3262 35.1903
10.8376 22.7809 33.8412
7.50599 19.4468 43.6607
11.1627 17.8991 35.6875
9.58213 15.9011 29.4372
10.3604 24.3322 44.5153
7.26096 12.8554 39.9404
20.9053 30.5066 51.4704
16.3041 21.1285 23.4907
4.81852 11.9241 21.576
5.32343 7.66021 14.581
4.64049 7.68112 18.2139
8.00759 12.3088 24.9038
10.6903 19.2193 29.2172
5.2594 9.86531 19.1861
5.81705 9.45972 16.9499
4.73538 8.2764 16.3439
7.31708 19.9758 47.0694
10.5079 10.6722 19.5654
9.99179 15.0001 25.9187
9.12168 14.9788 23.762
8.62584 10.4874 9.15942
4.02729 10.5779 28.8489
19.2028 33.5119 41.7776
2.81192 11.2878 31.6793
8.17194 15.0707 31.8318
7.77971 11.0024 16.6415
4.30857 8.58144 25.2988
13.0823 23.8487 36.9907
6.15493 13.0197 30.0941
5.55974 8.91375 23.6247
12.5528 19.6485 31.9679
13.4397 27.6716 44.4013
8.64866 20.1168 38.702
5.47274 7.26924 20.0847
8.17505 9.60772 12.0785
8.07907 17.2011 33.1147
6.76462 11.8545 32.8244
12.318 22.746 38.56
9.52702 17.0007 24.0472
4.32912 11.9783 29.9645
5.43845 5.45884 13.0858
9.41748 15.0229 21.8932
6.76076 14.8184 31.9032
7.79741 14.3758 23.1862
6.29538 11.141 19.8391
3.27156 5.84571 12.4718
5.42391 14.3697 28.9086
5.35025 11.1453 27.8464
8.79895 15.8435 27.5704
5.29376 9.65294 20.1387
7.03605 14.6907 32.0528
6.20116 15.1777 38.6034
7.44682 9.89934 14.3933
5.34789 10.4524 18.1523
4.37725 7.1868 15.7878
6.38042 12.7088 21.0333
5.0289 16.0135 39.5886
14.9858 30.5332 49.7854
4.51534 12.2622 42.7229
12.5603 15.1796 15.9606
6.50917 12.4724 16.8737
5.58343 19.0958 38.6313
4.16099 5.23554 12.9675
4.92597 12.6417 30.1027
9.22681 16.1307 29.9576
3.14292 7.11527 24.2983
8.60472 12.4787 24.9118
6.8882 14.6187 31.47
7.69221 17.346 38.9446
7.02332 9.29557 14.4762
4.76268 8.90709 19.2137
5.46357 16.642 45.8341
12.4911 18.8207 33.4983
4.9235 5.09124 8.87874
4.79984 10.3296 18.1668
6.03569 12.4748 25.8338
7.2115 15.1177 28.7516
5.80742 9.49242 23.6516
9.6394 19.1255 30.5426
5.50304 12.9021 24.1552
3.76196 11.3935 29.6555
3.91454 6.24776 16.8877
8.67461 17.1606 36.937
8.56533 16.371 24.9848
2.7984 9.82739 26.2666
4.65264 11.3435 24.0605
5.09149 11.1975 28.4799
3.99881 5.80389 13.6537
3.2089 7.2285 19.4109
5.14344 10.765 30.1102
9.76448 14.6017 15.0818
2.87004 8.22032 19.1242
3.55066 8.04987 20.7031
4.91615 12.3666 21.6946
3.81758 14.2393 36.9388
4.78882 9.90674 28.5475
4.31353 6.24524 23.1923
7.85154 12.0877 25.7227
4.82119 12.3193 57.2973
21.5485 29.7318 35.9255
8.49479 16.4484 32.8761
6.38987 14.4483 39.7045
13.861 18.448 18.5928
8.34481 21.403 37.5439
6.31059 11.5804 18.3736
4.65067 13.5975 29.6007
5.65794 15.1834 30.7543
3.33994 9.20766 26.6624
4.62354 12.1142 32.2868
6.34619 13.5657 29.4616
3.8625 6.97463 19.9307
7.12466 15.5182 31.9582
5.12354 10.4238 21.9382
4.31256 8.95701 15.4801
4.49726 12.576 35.8206
6.78077 14.8046 39.9323
6.08749 10.1249 15.1701
3.75127 10.9601 23.0067
4.30319 11.8623 41.7143
11.1176 28.066 56.2914
4.41003 5.89576 14.8473
4.63191 11.3277 22.8973
4.09474 14.3617 45.0364
7.22915 9.66606 15.9618
3.2291 11.4749 31.304
5.51137 8.48109 20.2586
5.07328 11.0113 30.7809
5.71513 8.96903 10.7633
3.37012 8.33128 15.9884
5.9483 17.1728 39.0706
4.36536 9.43903 20.377
4.95393 12.6168 31.1606
5.25918 9.00708 17.6836
3.89899 11.9716 25.3606
5.116 10.3534 23.0373
2.76446 6.87121 18.2529
2.20983 5.50289 12.4712
2.52979 6.97828 17.7973
4.46678 7.63135 12.364
2.723 8.72243 24.1553
4.95244 13.9784 31.4555
4.12077 7.83292 19.1884
2.77937 6.33828 12.3678
2.33376 5.29336 11.389
2.33668 7.27191 16.8668
1.72078 5.83102 22.1459
3.80387 6.98243 20.0269
4.92376 11.438 26.4449
4.47013 8.13494 23.1096
2.72316 5.34176 17.5768
6.02031 13.6862 24.7661
3.28974 9.69191 21.1887
3.81949 10.6607 22.1992
2.68747 7.56335 26.9419
4.25644 7.13428 30.6975
9.15192 13.1572 16.6934
2.95168 8.60417 26.7114
5.72901 10.2407 17.1792
4.87778 12.2531 26.2895
3.81745 6.90645 16.5243
3.68894 9.50431 27.1002
4.53612 8.88762 19.4191
5.10164 13.929 38.6069
5.15598 9.3689 16.8132
6.42155 17.6612 35.0452
4.16441 12.3259 36.2221
6.20975 12.4363 24.1907
2.34299 7.82673 27.442
4.51823 7.88164 14.0918
3.98953 15.1853 38.1656
3.67176 7.38519 24.6355
5.32292 11.7142 39.4392
9.46875 17.2694 18.9926
4.0724 17.9775 46.9953
4.06844 11.0635 29.9321
4.74651 13.3389 40.5542
4.46811 9.60532 28.3436
4.85289 10.1108 16.7567
3.87466 17.8783 55.6614
8.85278 19.1246 44.006
4.02871 8.89116 27.7659
3.04257 7.91249 31.0399
4.95457 10.3723 27.1228
6.73994 14.1334 24.0363
2.76907 13.0589 36.1868
3.8309 6.45596 18.1655
2.56736 6.64942 27.4831
6.20565 17.1715 40.8526
4.93969 7.29303 19.6902
3.06243 5.41361 10.2228
2.3262 8.07403 32.536
7.69969 15.3777 36.4429
7.46355 15.0372 18.1429
2.06058 8.93621 21.7206
2.12571 6.67714 19.2593
2.36948 6.64003 17.3337
3.70511 13.3507 35.2168
5.53588 20.9626 64.7308
7.38888 8.82306 13.8449
2.67695 10.175 36.9346
7.52685 19.8524 45.1102
5.1173 8.71255 23.755
5.19551 13.8987 31.094
4.48977 13.0311 30.0079
1.74776 3.68954 16.0281
3.48909 9.41254 30.8344
6.80101 14.4938 23.6997
2.40422 9.71809 35.3326
4.85274 13.129 35.1716
6.19994 17.9501 43.7279
4.06305 10.2 36.8908
5.102 15.091 27.1127
2.18243 8.54499 32.1922
3.01636 2.87361 11.6081
3.7649 11.4845 27.7252
4.52115 15.0051 52.1756
5.56119 13.283 34.4033
3.68103 6.43072 6.9034
1.44277 6.14834 14.7627
2.18984 6.97661 18.7388
1.52505 4.35537 13.4739
1.11689 3.30963 18.42
4.95261 15.8972 44.9861
6.76959 14.2122 28.6387
3.47435 13.6156 43.1262
5.61947 17.1337 48.6512
4.61119 6.60426 16.6784
2.93816 10.1879 23.8112
2.97403 8.99489 39.5453
5.52094 11.2616 26.8712
5.07191 13.648 28.4923
1.62777 6.92534 30.12
3.37279 10.2232 38.0892
6.08578 10.9154 22.7596
4.61283 13.0081 29.6104
3.27499 7.3252 17.5145
4.36447 15.9451 39.6039
2.72585 6.78642 21.3401
3.13736 13.127 53.3479
6.51857 13.7634 32.1629
3.52236 8.54644 25.1836
2.81814 6.26563 19.5066
2.56919 6.5408 28.0554
4.96575 11.4044 21.5412
2.43071 6.306 16.4242
2.00502 5.58894 21.8194
2.71335 6.0323 20.4605
5.70414 18.7887 37.4825
1.41941 4.22184 21.3055
3.27016 11.4981 33.6765
5.01394 11.0176 34.3245
5.02232 13.6412 27.3628
3.3123 9.44004 34.314
6.48814 21.9831 47.3871
3.23346 10.6078 40.8881
5.08009 7.9285 21.3883
5.44126 19.4446 44.0562
4.95246 17.0472 42.6618
4.10794 13.0224 41.8202
3.87129 9.2188 24.7605
3.65816 9.15561 18.2099
2.20606 12.9552 34.563
3.19491 15.936 65.9569
7.82192 14.291 42.6742
5.45625 13.3421 32.5537
2.56977 5.79639 24.4898
4.73977 9.89386 19.8165
2.86802 11.1962 40.8009
3.93411 9.50049 40.105
6.64551 19.9985 49.2175
4.56251 5.91847 14.8185
2.46183 6.17559 15.5358
3.15389 8.93216 15.3003
1.85083 6.52089 21.3546
2.66782 11.4008 50.724
6.74408 20.3473 42.4272
3.88992 9.97842 24.3177
2.83868 8.65112 27.44
3.07653 10.5082 30.4836
3.49181 8.4181 18.3975
1.57719 5.09804 18.7152
2.63652 7.9513 15.1509
3.42185 19.3156 53.7478
3.56211 9.99483 27.6051
1.90109 6.33636 33.8325
3.77502 6.58775 27.8068
3.72147 7.29487 24.2789
4.40393 7.65213 14.7177
2.04737 12.9639 56.8441
8.12732 17.2529 30.6627
2.17825 7.47897 31.5377
3.28642 9.61336 26.6413
3.81136 12.114 31.5067
2.6771 6.93002 30.715
4.7584 18.8019 51.5805
4.6418 7.9817 26.8224
5.45752 17.7511 43.8639
2.45662 4.99297 16.2351
1.25147 3.81593 25.9749
4.66939 11.1613 30.4259
4.56876 11.3859 31.4951
2.64629 10.2703 30.2678
3.37655 6.59387 26.2437
4.20556 8.91818 20.9123
4.92962 22.7172 57.2998
3.56784 7.81421 27.8837
2.23668 7.28234 41.1129
5.7695 10.5884 14.6092
0.837004 3.63798 17.5336
3.53383 13.4778 38.0572
4.55396 12.4983 40.0496
4.24158 9.20133 18.5464
1.59997 5.20128 27.8527
4.80851 18.5901 55.1982
5.2223 10.8797 15.3371
0.865358 7.61362 34.7138
2.29066 6.9063 37.509
4.42958 11.3794 27.4295
3.74253 15.0378 53.5025
5.07929 10.1968 26.8014
2.3038 5.35679 13.1918
1.51906 5.47808 22.7614
2.88758 7.53396 17.341
2.2552 8.11965 31.6186
2.81623 7.96049 19.322
2.24005 5.12682 14.1593
2.48622 12.8273 33.5118
2.42142 7.26308 37.4836
3.80085 7.21838 20.2029
3.55424 14.7564 43.5905
4.36973 9.50291 21.4845
1.50977 5.85677 17.9313
1.49976 4.06184 24.9758
3.77197 17.6322 56.3947
5.34902 12.4017 35.0004
3.54204 6.86291 15.1639
1.98793 7.82931 26.1734
2.0962 6.34181 27.2954
2.90669 8.66467 30.4241
3.80887 9.63388 27.8776
3.59219 11.9632 36.7286
3.47174 9.07873 25.8054
2.8995 6.23396 13.9681
1.71026 6.12702 17.9977
1.93637 10.5846 34.6195
2.3518 6.25981 17.6671
1.31047 7.42024 36.4342
3.24804 5.0051 8.21047
1.65087 6.40814 19.6087
2.27479 11.3412 43.0696
3.87563 4.73201 13.0339
2.61865 11.4066 30.7451
2.01592 4.31034 15.2037
1.47562 5.56887 21.3264
1.87391 4.29506 16.1996
1.65734 5.80885 19.7375
2.49622 6.60246 25.2775
2.93536 13.0943 40.0165
3.97209 7.84788 23.8913
2.64847 9.21937 21.386
1.92709 7.91291 35.238
2.56377 8.63484 35.3458
3.74112 13.2242 29.9848
2.09559 4.51228 24.3258
3.56926 12.5873 36.6192
3.26147 7.28386 20.1737
3.07847 10.711 30.7804
3.26103 9.94913 31.2518
3.3935 14.8166 35.0447
1.61852 6.20887 27.228
2.45977 7.26988 33.4786
3.20491 7.84489 25.8233
3.00931 9.80117 31.3774
2.59298 7.80041 17.5077
1.38326 8.04579 48.2786
4.94629 11.6647 30.0759
3.67265 13.7698 25.3831
1.50823 6.30288 40.6321
3.86327 6.40967 10.3444
2.23179 11.9309 27.4471
1.7946 10.2771 42.8608
3.11253 8.58525 39.3683
3.75367 6.44507 25.3398
2.82304 10.8701 36.3966
4.12208 12.0508 36.353
2.55131 3.66804 25.7206
3.2596 4.76563 6.91889
1.82018 7.11192 13.491
1.6542 7.55155 29.0234
2.38771 7.15676 29.008
3.50257 15.1221 50.9876
3.05667 5.44554 23.6026
2.65094 9.93468 20.1871
2.17279 12.9039 32.8404
2.10132 9.37214 40.3051
3.6546 5.10637 17.2675
2.36691 9.13863 38.1511
3.8281 6.31189 28.2413
4.64113 14.6979 18.274
1.4517 9.55778 32.4905
2.85355 15.2239 53.8645
2.82635 6.38779 32.1458
3.01713 12.6809 42.3728
3.61937 6.08204 25.6531
2.15041 4.37032 17.5385
2.84673 12.0483 20.9399
1.2322 4.68233 18.1591
2.01887 8.70345 22.731
1.44862 5.5696 29.0795
3.03661 21.4394 75.3633
4.91474 9.27481 29.3188
2.89414 10.9601 68.2822
6.18487 14.6508 28.9861
2.37107 11.7718 40.4079
3.14523 2.83029 21.5248
3.49107 14.7889 54.3603
5.14372 16.2689 34.6459
1.9388 6.88855 29.6093
2.26034 4.31605 29.7477
3.74899 8.63818 19.8611
2.39945 7.74628 26.4363
2.30034 8.22716 33.6964
2.93028 8.09438 20.6786
2.24108 8.79093 36.717
4.30009 14.2945 67.1598
5.89597 13.8362 16.937
1.53873 8.14712 29.782
3.22668 12.2167 26.365
2.5119 13.1477 47.7331
2.69976 7.50997 26.2523
1.81526 4.86141 26.4021
2.49739 7.0393 27.5609
2.29819 6.60091 21.1358
2.29261 12.1775 31.3209
1.75239 5.29154 30.1431
2.73695 5.51676 25.2497
2.80163 7.86298 22.3323
2.14132 9.06536 34.5624
2.19377 4.83722 18.6487
1.91058 5.45515 16.0978
1.70621 6.89221 16.7831
1.55854 6.7988 23.0067
1.5476 9.01519 43.6627
4.20829 15.3765 37.7101
2.4897 7.36408 26.433
2.21053 4.22042 11.8669
1.63956 10.4691 35.7556
1.94802 5.57934 34.2595
2.48516 6.5973 42.9954
4.44102 11.1259 40.452
4.27885 9.28417 32.0835
4.03957 12.3061 26.5351
1.91957 5.48829 19.3886
1.84627 8.69494 32.8916
3.13874 15.1947 46.4169
2.41033 4.71202 18.3243
1.68364 5.47985 32.8248
4.29495 17.5171 41.8578
2.88621 11.7172 36.6157
3.6585 13.9859 30.1918
1.40229 4.66746 25.4092
2.39459 8.85005 25.6428
1.83108 7.01125 14.1785
0.611423 6.75169 35.9528
2.7742 10.3492 31.0097
2.41865 5.40983 28.1377
2.99547 14.3052 35.207
2.65942 9.23973 48.5812
4.16238 9.97078 28.6124
2.82166 12.0259 28.925
1.38173 8.88503 50.0824
3.27662 9.91282 34.8794
2.00441 6.80598 50.5924
4.69006 9.99218 20.24
1.05615 3.22426 30.5921
3.21288 9.30427 24.5535
1.47121 3.97644 23.7383
2.77965 12.7716 28.1079
1.5523 4.23781 38.6739
3.64317 7.53285 33.7394
3.3715 8.44662 19.1876
2.11543 9.20453 19.8908
0.846749 3.78206 23.7597
2.17655 10.0592 41.0334
3.62844 13.8973 28.9137
1.63758 7.39253 45.0501
4.07923 17.9207 59.2442
3.41776 7.4572 57.7087
5.19039 14.6451 28.4738
2.01827 4.64147 3.9821
0.255603 4.00101 30.5447
3.26395 8.39672 19.8854
1.7493 12.8333 54.6211
4.18723 6.98498 21.3878
2.46961 10.3442 22.9672
1.35358 6.98526 27.1632
1.87456 5.3463 34.8218
3.20635 10.2462 21.8822
2.17737 11.98 31.7851
2.29025 8.56601 44.1446
2.52385 7.49938 36.9435
2.49552 8.68626 22.7931
1.92595 5.46736 28.6813
2.42889 8.5554 48.4121
3.91458 10.5929 16.5467
1.03895 4.89142 18.2323
1.80937 5.94044 21.2142
1.38429 4.53169 12.579
1.16217 4.71576 29.5356
2.65585 6.15187 25.7925
2.2459 5.32565 15.3243
1.69916 4.22382 16.2147
2.42113 15.7312 54.3934
3.24483 10.9344 44.3492
2.78537 9.51111 25.4255
1.93051 3.6467 19.5831
1.76282 4.66072 50.3885
4.99019 13.5318 19.2013
1.5672 10.9923 25.3992
1.33136 6.13083 39.7496
3.34471 6.4062 23.041
1.83799 4.45674 13.2266
1.3925 5.76559 17.7798
1.59091 8.92868 37.3722
2.93178 5.95156 26.8141
2.59546 8.08826 21.0937
1.82834 11.176 39.8093
2.71181 10.1295 37.5095
2.80404 8.2658 25.4094
2.09496 3.67088 17.5838
2.03373 7.28943 21.2765
2.41915 13.7013 22.0382
0.916731 7.05966 32.1068
2.13218 10.8219 31.4191
1.77307 8.25857 31.4638
1.79479 9.52898 53.892
3.48125 6.78442 8.33272
0.418004 2.66684 14.0242
1.24702 6.25388 35.6273
2.7512 5.84543 24.9552
2.5112 9.81762 28.9462
2.26008 8.45551 25.8643
1.50906 3.12691 10.5663
1.12877 7.82927 22.0876
0.691345 3.75522 34.1912
2.12218 2.5119 20.6829
1.81961 6.64379 24.472
2.20082 10.1316 26.8152
1.47916 7.45519 43.1235
2.94057 6.33245 22.5936
1.84049 6.29534 14.8218
0.807174 4.83909 30.1665
1.99587 6.14385 28.4225
1.88376 8.81365 26.1258
2.09955 4.42247 34.1219
3.54832 13.6723 50.456
3.26166 13.3283 45.2508
3.59988 11.7395 24.8919
1.10606 4.03097 16.6256
2.05135 15.7825 43.8948
2.23831 7.36759 25.5625
1.10684 2.1328 28.6121
2.76867 9.47157 23.0312
1.59331 6.96773 25.8154
1.15574 3.30842 23.5728
1.26668 5.7104 37.2385
2.80902 10.2456 30.1196
1.89818 7.59708 30.1513
2.02624 2.97392 9.04688
0.896206 5.72855 22.301
2.09935 4.96098 25.7749
1.86344 6.60691 18.5957
1.40929 4.46601 17.8497
1.64653 15.6018 60.9872
3.61866 5.95286 19.3252
1.70341 4.34468 16.9874
1.37536 6.81145 20.5065
1.42547 4.23915 16.6648
1.04576 5.62653 16.6071
1.01857 4.5724 28.5241
2.18034 6.30905 26.6268
1.84288 10.2335 76.3399
5.11393 12.0844 13.702
0.760746 7.63878 24.2601
1.55975 4.57312 20.9838
1.47077 5.2345 12.9503
1.14919 6.09381 25.704
1.45777 6.13538 22.0435
1.34515 6.03707 42.849
3.73552 19.2458 65.0858
3.40115 7.62887 14.6759
1.13561 7.22789 42.5521
2.76015 10.204 30.279
2.46324 5.49923 16.005
1.18433 4.42151 32.7165
2.43824 7.85304 30.4708
2.18077 8.46808 41.6471
2.47513 8.28199 16.305
1.42596 7.11078 37.2014
2.42167 7.86167 31.4468
1.98674 9.86047 26.1862
1.65516 5.31726 18.7269
1.13724 5.0635 18.4066
1.37807 5.2394 30.5889
2.01631 5.44134 21.9614
1.76611 6.32231 20.1087
1.56996 11.1622 36.0116
2.06178 11.3531 61.4587
3.31809 5.5804 32.3503
2.24975 16.0034 46.5213
3.3585 6.49785 28.557
2.18302 11.3189 40.3914
2.17158 8.70022 33.0353
1.88648 4.82349 21.4005
1.4637 6.28862 26.9905
2.02772 9.22733 39.0166
2.29923 8.09254 22.8161
1.65023 3.21787 12.7855
0.848936 6.60014 20.35
1.82477 6.48212 25.3342
1.50231 9.98486 30.2386
1.85413 3.51298 23.5247
1.90338 7.41779 27.7418
1.44441 9.73944 30.1644
1.5305 5.63153 32.3525
2.24805 8.78992 34.976
2.32539 6.34098 41.109
3.16845 12.3417 28.2132
1.89297 7.32137 15.0263
1.10412 12.1847 60.9653
3.80519 9.45062 34.2147
2.40799 10.8224 39.0712
2.08102 2.80862 28.0689
2.2495 11.0995 21.9238
1.48488 10.1857 42.8942
3.08606 8.05928 28.823
2.08384 5.77581 23.3296
1.22845 3.88157 18.7264
1.42471 8.41667 46.273
3.08159 9.98194 38.9228
2.7096 3.51632 22.6087
2.15294 12.0528 44.4493
2.81213 8.35129 36.5115
2.68564 10.4628 77.1183
5.05677 26.2276 50.5204
3.01165 5.17929 11.0386
0.616299 4.74067 35.6268
2.30556 8.9082 31.2595
1.70962 5.99672 26.6927
1.81989 7.07482 21.1718
1.21857 4.78056 20.5844
1.27272 5.03026 24.4061
1.80125 8.60341 23.4055
1.74427 5.20817 20.0023
1.34421 6.42674 29.9185
1.52695 4.52858 54.319
3.46983 11.3042 24.3064
1.66301 12.2567 38.454
2.52728 6.05378 41.9001
2.65627 11.7474 63.3187
4.82593 30.0029 55.3643
2.73543 2.84832 15.9134
1.14781 4.87319 27.7725
1.78793 4.63726 10.3601
0.90689 3.96214 31.7262
2.06925 4.26246 25.9746
1.95277 8.12547 21.4161
1.54621 7.29156 31.9711
1.85309 11.2845 34.3977
2.21351 8.97702 48.7161
3.03183 4.79177 10.4371
0.736779 5.99342 41.6956
2.78909 7.25205 21.4275
1.05584 4.14295 26.0096
1.74759 10.8118 21.825
1.30027 6.3977 20.0874
1.58043 3.50709 21.3113
1.17866 14.8467 82.0939
5.82236 9.50427 21.068
1.48085 5.46559 19.2856
1.50513 4.61933 38.011
2.4259 12.0347 38.1787
2.96771 8.20166 21.0878
0.981669 6.93793 31.856
2.40955 7.05232 26.7184
1.1946 8.1871 26.4494
1.83164 3.32866 14.9097
0.930374 5.2308 17.8043
1.37192 6.07127 38.7831
2.72046 7.24857 29.5213
2.618 10.3755 27.9905
1.78577 8.88467 50.0897
2.87143 8.91723 31.1971
2.11751 4.77152 16.2371
1.34496 5.43545 22.4589
1.57035 6.71711 29.3597
2.09829 9.75755 15.3559
1.07683 4.3355 32.16
2.61287 6.59262 12.6168
0.729706 4.37456 30.2779
2.16285 8.47303 12.8319
0.475143 5.62878 34.9239
2.31008 8.0635 30.1933
1.96447 6.32531 19.4773
1.28015 3.91521 22.0504
1.36837 5.86774 13.7119
0.912276 3.96143 18.5073
1.34165 4.08377 52.2695
4.23203 30.1243 80.271
4.58622 6.96349 25.2019
1.7797 5.60431 52.1567
4.00856 10.0827 18.6663
1.24042 10.7143 58.0701
3.94138 6.32671 45.5133
3.26897 8.46119 35.7015
2.63694 9.16707 34.9219
2.57101 11.7957 35.1899
2.13807 9.28476 36.9485
2.22492 5.42902 26.5153
1.6918 8.78217 18.3207
1.15622 6.15271 19.8182
1.31699 6.46504 32.8869
2.39751 5.68138 18.4569
1.49314 6.19059 28.2264
1.69071 6.96991 20.5354
1.61009 9.07598 34.1382
2.58147 12.7405 31.8506
1.56543 12.1165 48.3807
2.75357 5.72694 34.8217
2.25666 7.87869 74.0475
4.58103 12.9509 26.3243
1.87042 5.4798 12.896
0.915902 7.99621 25.7684
1.64152 6.28582 22.2088
1.58019 8.40666 22.0769
1.36221 6.41682 33.6552
2.2239 4.80168 17.754
0.910541 4.95924 13.2929
0.741665 3.55026 21.9007
1.48736 4.83655 14.1987
0.991567 5.78885 30.7219
1.8444 2.27614 22.264
1.30919 6.30856 51.2654
3.68468 10.3667 6.8276
0.375523 5.3963 25.5731
1.64146 6.48468 15.7008
1.17408 6.2656 26.2669
1.47915 4.72236 17.6275
1.18375 3.77738 26.7291
1.71195 7.70623 26.7114
1.72942 9.25247 30.1429
2.03558 6.71153 30.3467
1.80798 6.65022 25.3169
1.91427 6.02186 28.1929
2.01414 8.83375 28.4372
1.5695 3.75401 13.6047
1.19093 9.83696 38.9484
2.15957 4.77316 24.3958
1.39547 6.57408 34.8242
2.24171 12.2542 44.454
2.31889 9.25482 26.3601
1.88901 5.31312 20.0563
1.15611 7.01628 30.7833
2.09165 10.8232 61.1325
3.97075 6.04961 16.9104
1.02866 7.74317 17.986
0.886333 2.9957 18.666
1.25808 5.97255 28.2224
2.20645 9.40038 35.6079
1.95742 7.99843 42.7121
3.07343 9.70228 45.4103
2.3887 6.15419 26.575
1.33222 6.3311 48.2774
3.21534 18.3516 45.2702
2.76334 0 0