# pn-170911/RbIIR-60-AMC2-1280-1959.psd
# Power spectrum* (dif=0,1,2) (really just |FT|^2)
# NOTE: only the first half! (symmetric)
# weeks: 1280-1959
# 537 clock-days, 10 excluded
# PSD: 1441
290.204 0.0408597 0.0225388
13111.5 0.262377 0.0226495
53456.7 1.08112 0.0217743
13579.2 0.54246 0.0240542
17490.5 1.27158 0.0221694
4878.7 0.500998 0.0230007
3708.27 0.561333 0.0212328
2796.13 0.539043 0.023408
2264.95 0.629111 0.0232199
1722.05 0.576592 0.0221765
1370.15 0.594594 0.0222575
1035.04 0.538298 0.0241963
950.748 0.58945 0.022121
836.739 0.580587 0.0243441
716.513 0.581079 0.023361
623.984 0.594415 0.0226048
550.763 0.57939 0.0230371
497.833 0.625379 0.0233297
471.92 0.640265 0.0231486
432.223 0.663431 0.0256466
374.395 0.627831 0.0224355
337.749 0.650927 0.0228192
344.286 0.706551 0.0251797
323.396 0.734926 0.026589
294.602 0.725317 0.0226748
264.258 0.711341 0.0246844
261.379 0.747657 0.0238584
255.832 0.813454 0.0243249
242.202 0.8212 0.0254946
223.577 0.826221 0.02504
221.471 0.887403 0.0257871
228.218 0.916713 0.0285144
211.213 0.945781 0.0262689
189.097 0.896393 0.0282955
217.914 1.09451 0.0285167
188.827 1.00967 0.0269027
185.219 1.04329 0.0282533
169.615 1.02663 0.0307193
178.352 1.13203 0.0321278
172.4 1.14456 0.0289022
169.521 1.18206 0.0310752
162.127 1.2068 0.0322735
165.718 1.33687 0.0316862
154.484 1.29701 0.033773
152.303 1.33167 0.0344978
153.152 1.40074 0.0357261
146.04 1.37096 0.0367012
154.751 1.54424 0.0374067
147.727 1.48818 0.0400801
153.504 1.65009 0.0431459
137.983 1.52901 0.039594
133.412 1.53994 0.0419233
144.759 1.80224 0.046955
147.621 1.90658 0.0490125
132.025 1.73726 0.04523
141.948 1.95669 0.0519766
134.89 1.91914 0.0482009
147.991 2.1506 0.0562652
132.147 2.03554 0.0551622
135.387 2.16345 0.0576197
132.467 2.22879 0.0581522
136.771 2.36481 0.0648131
118.825 2.08887 0.0599699
140.745 2.53274 0.0729334
130.52 2.40723 0.0697141
125.835 2.44253 0.0669219
123.466 2.47206 0.0729357
127.916 2.66387 0.0784273
118.948 2.56108 0.0752104
135.132 2.88298 0.091087
128.688 2.89226 0.0905759
121.098 2.84379 0.0876043
130.194 3.09406 0.0935419
118.502 2.91643 0.0930669
119.831 3.02021 0.103102
119.891 3.16819 0.105662
114.108 3.08452 0.108362
116.397 3.20449 0.114459
119.866 3.41061 0.119785
121.813 3.49651 0.12693
110.143 3.29369 0.126252
117.48 3.52745 0.131481
115.93 3.62111 0.143377
113.474 3.63885 0.139426
111.484 3.67868 0.144734
118.397 3.88817 0.157409
120.097 4.15923 0.165717
108.894 3.787 0.15752
112.579 4.05652 0.172214
117.105 4.33073 0.182789
112.585 4.1593 0.178883
107.962 4.14861 0.189974
115.75 4.60146 0.204607
110.592 4.42423 0.203322
112.75 4.66143 0.216989
116.155 4.76098 0.225657
104.221 4.46805 0.217783
105.597 4.63667 0.236632
107.187 4.78862 0.239086
99.2753 4.54736 0.236518
106.5 4.94522 0.259584
108.161 5.18238 0.273214
109.298 5.23047 0.276063
101.547 5.02929 0.283597
101.194 5.00762 0.279456
109.853 5.58183 0.316779
108.242 5.69107 0.328557
105.338 5.61955 0.333926
106.723 5.77036 0.344168
110.511 6.10184 0.352358
106.257 5.98471 0.366105
93.0269 5.30435 0.330711
108.198 6.37967 0.398668
99.2368 5.86628 0.369875
102.709 6.25219 0.41497
110.676 6.79432 0.448831
95.8579 6.01245 0.41246
98.0812 6.28731 0.433821
100.957 6.55806 0.458824
100.069 6.60769 0.460482
105.956 7.15422 0.498866
102.752 7.09031 0.519083
101.227 7.06722 0.520994
97.7254 6.91945 0.51939
94.4003 6.75881 0.514946
95.6 6.97649 0.528706
87.7692 6.48493 0.516985
102.338 7.729 0.607658
101.345 7.80592 0.626581
94.2463 7.37798 0.611583
93.9725 7.39708 0.606596
90.2885 7.24284 0.626047
84.5735 6.96747 0.605808
92.3375 7.61877 0.665244
91.0755 7.58102 0.673053
94.2958 7.93696 0.705276
99.9249 8.65006 0.762944
96.13 8.46007 0.783481
96.0505 8.56945 0.8064
93.7071 8.4555 0.781946
89.7812 8.32528 0.794812
86.1308 7.88575 0.755849
90.5684 8.46218 0.826775
92.9629 8.75338 0.846332
85.2396 8.24148 0.830117
89.6063 8.64721 0.877722
84.359 8.41024 0.87134
88.1445 8.83663 0.926423
91.8282 9.44214 1.01086
83.012 8.6203 0.924369
94.8557 9.88124 1.05764
86.708 9.28191 1.01744
84.5275 9.02595 0.977
85.6618 9.34555 1.05093
84.4783 9.41467 1.08721
82.5515 9.27383 1.06585
87.4719 10.0296 1.17775
87.1261 9.8907 1.15743
80.0231 9.40931 1.12874
82.0829 9.46821 1.13903
84.7099 10.1409 1.26078
78.8971 9.36599 1.14901
84.6972 10.3828 1.29415
80.2942 10.0503 1.26578
83.4132 10.5344 1.37422
83.4743 10.4675 1.36045
82.7174 10.7462 1.41089
79.4008 10.4309 1.39176
81.4302 10.6917 1.42211
75.1445 10.021 1.36976
80.4015 10.804 1.48986
74.4735 10.3756 1.44658
85.0852 11.8145 1.68092
74.7129 10.3504 1.49604
75.5593 10.6832 1.52921
75.0465 10.8054 1.57546
79.3353 11.3908 1.65933
71.0366 10.3426 1.53171
82.1382 12.143 1.8096
65.0923 9.81042 1.52993
73.0941 11.0562 1.71709
73.8092 11.3918 1.78356
76.1588 11.7618 1.89131
72.0345 11.0856 1.73677
79.3009 12.4862 1.99964
71.2143 11.5094 1.87889
69.7782 11.1784 1.80492
70.0904 11.5369 1.91663
74.2616 11.9409 1.97782
73.8569 12.5064 2.14176
74.0459 12.3248 2.09744
75.8886 12.8982 2.20994
74.1784 12.5048 2.13752
74.8176 12.8148 2.24022
66.7217 11.4917 2.0023
72.2972 12.7803 2.30724
65.7949 11.9826 2.23175
72.3216 13.0244 2.36696
66.6246 12.1506 2.26456
74.4346 13.6652 2.54548
69.4227 12.9588 2.43452
66.7784 12.7861 2.50252
68.4149 12.8902 2.46589
69.7262 13.3086 2.5825
69.5411 13.3458 2.61923
70.7723 13.6033 2.6757
67.568 13.4567 2.69255
60.39 12.0341 2.44495
64.0713 12.7453 2.62
63.5831 12.7096 2.59006
63.6261 13.078 2.71582
61.7954 12.7633 2.68422
67.6514 14.1793 2.99599
64.5901 13.8199 2.98771
69.5321 14.6578 3.18799
65.9779 14.0383 3.03021
63.1779 13.547 2.93444
64.965 14.2669 3.1641
65.2075 14.4703 3.26757
60.6205 13.2834 2.9895
65.2796 14.6011 3.31373
66.7795 14.8855 3.35771
63.0198 14.3542 3.32195
62.7298 14.5775 3.42973
61.5501 14.3069 3.33687
59.8023 14.1258 3.34593
65.0065 15.1872 3.58308
53.2587 12.7609 3.12629
60.3518 14.4416 3.51756
62.2655 15.0951 3.68007
55.1689 13.398 3.32262
59.6729 14.7225 3.63591
61.7752 15.2778 3.83316
58.6394 14.9359 3.78633
59.4558 15.2537 3.9713
55.0963 13.929 3.53906
61.391 16.2124 4.22851
56.3036 14.3075 3.74182
59.2431 15.2609 3.97889
62.448 16.353 4.3208
57.1017 15.1647 4.0747
56.7473 15.2139 4.13056
58.4112 15.898 4.33757
54.786 15.1117 4.18567
54.7677 15.1207 4.21731
52.673 14.672 4.10467
59.5784 16.8956 4.80836
57.7785 16.0432 4.55034
60.3046 16.953 4.78757
57.5032 16.7435 4.89953
54.9688 15.8958 4.59774
51.1814 15.1427 4.45696
61.6878 17.9661 5.2892
52.9554 15.6366 4.60988
54.2518 16.2245 4.89967
57.1991 17.0911 5.16656
53.1166 16.3008 4.96211
50.6696 15.3474 4.74112
54.4046 16.4645 5.09545
51.3856 15.7579 4.87362
51.6701 15.8483 4.89399
48.4842 15.399 4.9304
52.7899 16.8085 5.34047
51.4449 16.6104 5.35162
50.9312 16.1917 5.2726
50.9691 16.2604 5.27452
49.8803 16.1548 5.33539
50.549 16.6086 5.52749
46.8279 15.6515 5.27725
52.952 17.2551 5.69371
47.6465 15.9589 5.36732
48.9076 16.529 5.56891
51.2294 17.6813 6.05157
47.4461 16.0728 5.46102
45.2314 15.7087 5.50356
49.8258 17.6421 6.26178
49.2473 17.0161 5.98746
46.7552 16.5133 5.91024
49.0555 17.2279 6.10702
50.6062 18.2363 6.63119
46.4741 16.4538 5.87527
48.3577 17.7683 6.4709
46.072 16.8499 6.22924
47.6926 17.5695 6.56639
48.3024 17.809 6.58158
44.6818 16.4809 6.16212
48.3393 18.0728 6.74256
42.8868 16.2484 6.28322
45.4474 17.7208 6.89342
45.5073 17.3177 6.63392
45.0465 17.3015 6.7124
41.6941 16.1177 6.30002
46.7132 18.4408 7.33931
43.0646 16.8932 6.78508
43.1466 16.5976 6.44958
41.5824 16.5303 6.67165
41.7925 17.1065 7.08292
47.6191 18.2937 7.05982
41.6904 17.1899 7.06821
44.6909 18.5252 7.68594
47.5591 19.4418 8.03242
45.0614 18.3445 7.55065
42.8904 18.063 7.63356
43.1633 18.1129 7.67634
43.424 18.2715 7.74553
42.4326 18.2125 7.89431
42.7138 18.0462 7.67399
39.406 16.8337 7.28175
40.9411 17.5789 7.70309
42.6644 18.366 7.86742
40.5435 18.1395 8.08425
38.6235 17.0275 7.61161
38.3335 17.08 7.73505
41.3941 18.4634 8.33112
41.2571 17.9711 7.96506
40.8272 18.4711 8.35792
41.5915 18.9098 8.57496
42.5802 19.5305 8.9699
39.7164 18.2099 8.40298
36.7479 16.7874 7.88565
44.2021 20.5675 9.62204
39.8437 18.6659 8.80882
39.3055 18.5914 8.81397
34.7702 16.8167 8.28828
39.019 18.6264 8.95828
36.2777 17.268 8.42454
37.6948 18.3168 8.88804
39.5926 19.0398 9.08543
35.0907 17.0795 8.33302
37.379 18.3683 9.05138
38.8878 18.912 9.2489
38.7301 19.9118 10.138
38.0626 19.0847 9.79975
38.6295 19.1061 9.55975
36.143 17.875 9.02859
37.5646 18.9154 9.57071
39.0503 20.0936 10.3211
35.0923 17.7291 9.2074
36.7654 19.0743 9.85193
36.3801 19.1602 10.1782
37.5573 19.6939 10.4794
38.5831 19.9925 10.5548
40.0479 20.875 10.8825
35.1582 18.43 9.6839
35.1346 19.0881 10.3303
35.9163 19.295 10.5171
37.1651 20.0054 10.8991
34.3987 18.8099 10.3847
37.2025 20.3562 11.0553
33.4602 18.5208 10.361
33.3339 18.2 10.0858
36.2574 20.3759 11.3985
34.1918 19.3158 11.1224
34.0126 18.3958 10.1664
33.2606 18.6687 10.667
33.6366 18.9466 10.7578
32.056 17.8737 10.0351
35.3737 20.4955 11.8058
32.3973 18.614 10.822
34.135 19.6295 11.3185
29.8288 17.3506 10.3211
32.0647 18.562 10.881
32.377 19.009 11.1954
32.3063 18.8143 11.0587
32.9627 20.1133 12.126
31.9297 18.9852 11.2127
31.0819 19.1925 11.7819
29.0686 17.4475 10.6511
33.525 20.8718 12.932
31.3614 18.5796 11.3036
32.69 20.3507 12.6303
30.2753 18.485 11.5276
30.7806 18.6767 11.4337
28.9596 18.286 11.5192
30.2153 19.1954 12.1629
31.3924 20.2793 13.2691
35.1603 21.9174 13.7874
31.1542 19.3254 12.255
30.8731 19.34 12.2371
34.9435 22.7372 14.7275
33.8467 21.1756 13.1141
29.9374 19.5542 12.7068
29.6499 19.6981 13.2574
30.7165 20.3853 13.597
32.7146 21.1465 13.7021
30.9923 21.2474 14.3921
30.6049 19.8563 12.9627
29.094 20.0732 13.8514
29.5045 19.4087 12.9651
28.4702 18.9486 12.5722
26.7414 18.3694 12.7144
27.2021 18.6282 12.9219
29.6509 20.7705 14.564
30.6392 20.9101 14.3504
29.2593 20.494 14.3063
29.0583 20.1051 14.0442
30.8335 21.529 15.0853
29.4261 20.5468 14.3904
26.6145 18.9066 13.6855
26.821 18.7888 13.1987
25.3275 17.987 13.0096
28.3476 19.9184 13.9482
26.6707 19.552 14.3557
28.316 20.4495 14.8014
27.6925 20.0862 14.7321
25.0645 18.175 13.4772
25.1845 17.8126 12.9057
27.5537 20.6852 15.5803
27.5189 20.4154 15.4368
27.7144 19.8654 14.3267
25.499 19.1429 14.617
26.6949 19.9098 15.1335
27.2884 20.0689 14.8259
26.5052 20.269 15.3784
26.9598 20.1841 15.2185
25.0173 18.6966 14.0846
24.608 19.2498 15.1227
25.8528 19.5361 14.8139
24.117 19.1182 15.3196
26.5429 20.0435 15.4431
28.388 21.9896 16.9605
25.1199 19.4428 15.1532
24.6402 19.7091 15.9203
26.6408 21.043 16.575
26.2531 20.2025 15.6358
25.2991 20.635 16.6643
25.6574 20.1963 15.9282
22.4621 18.0971 14.835
22.9524 18.4853 15.1834
25.1825 20.1418 16.3336
25.0315 20.9639 17.6427
27.7883 22.2168 18.0689
25.9344 20.6615 16.5802
24.3841 20.145 16.5598
22.7862 18.6386 15.4339
23.0036 19.3388 16.4051
24.0835 19.9108 16.3316
21.7156 18.9968 16.4424
21.7891 18.7827 16.727
23.1068 19.1762 16.56
25.5688 21.2734 17.634
24.356 20.8014 17.8276
23.5508 19.7307 16.4446
22.7325 19.8526 17.0903
21.0203 18.6 16.4711
22.7906 19.4457 16.8664
22.4687 19.6692 17.4325
23.7977 20.2979 17.2948
20.7458 18.2203 16.3423
21.5426 18.9428 16.6507
22.3774 19.5794 17.3268
22.0674 19.9505 18.2311
21.8368 18.558 16.1784
21.845 20.0383 18.5564
22.1888 19.5015 17.5077
21.8848 19.376 17.2144
21.8347 19.9772 18.0537
21.1851 19.5705 17.9362
19.7591 17.9484 16.7582
19.5798 17.5016 15.7356
21.1138 19.3703 17.6323
20.9058 19.462 17.9168
20.5807 19.1802 17.9718
21.3422 19.76 18.0872
20.3602 19.6466 18.7253
20.3504 19.176 18.18
19.5597 18.229 17.2466
19.8658 19.5841 19.1941
20.4468 19.4979 18.8865
21.6853 20.9726 20.3152
20.3822 18.7408 17.9364
20.2209 19.1509 18.2888
19.5923 18.9276 18.3553
20.2667 20.0517 19.8158
19.8912 18.7245 17.9967
19.33 18.6582 17.9204
20.5599 20.3338 19.7667
20.1003 20.091 19.7333
18.2664 18.5866 19.0697
19.5318 19.3488 19.3099
18.2466 18.0637 18.4259
19.9086 19.5871 19.5218
19.9475 20.1666 20.388
20.8752 21.0976 21.1771
19.1986 20.0156 21.3345
21.6692 21.2652 20.9364
19.7255 19.9223 19.8563
17.8897 18.4975 19.2024
18.122 18.9719 19.8656
19.3665 20.3098 21.2713
20.3841 20.9263 21.5156
17.9232 18.4468 19.4211
19.8185 20.9876 22.5422
20.2755 20.1728 20.4301
21.0107 22.4042 23.4758
20.7213 22.2026 23.7332
18.9708 19.7206 21.198
19.3618 20.0365 21.3924
20.846 21.5646 21.9283
19.4348 21.7435 23.4663
18.6687 20.4257 22.852
19.6795 20.412 21.6034
18.9492 20.4367 22.2525
19.6025 21.4304 23.3224
18.92 20.6467 22.7998
19.5445 21.1372 23.1675
19.2541 20.5874 22.0234
18.1316 20.5576 23.5813
20.279 22.238 24.6247
19.492 21.2984 23.342
18.3741 20.8236 23.8779
19.2343 20.7306 22.5006
17.9132 20.2972 23.1657
19.4483 22.0452 25.2146
19.8137 21.8078 23.8145
18.5332 20.9667 23.5969
17.0581 19.561 22.6107
17.8746 20.3168 23.2316
17.6046 20.5457 24.2886
18.1659 20.4519 23.5196
17.0625 18.4947 20.7042
17.8811 20.8132 23.9749
17.022 19.6589 23.2941
18.5006 21.4546 24.6515
17.2443 20.5226 24.7598
18.3855 20.9241 23.9855
17.6901 20.3108 23.0335
16.2051 19.4621 23.2311
16.5471 20.2546 24.5587
16.5069 19.0012 22.7382
16.7244 19.7248 23.3225
15.8676 19.4027 24.1128
16.9962 19.5835 23.1341
16.6043 20.0632 24.3459
17.1679 20.4206 24.0061
16.0359 19.7364 24.1882
15.7245 19.266 24.2039
16.701 19.8242 23.9919
17.5755 21.3993 25.3016
15.7515 19.7797 25.2208
16.9837 20.5653 25.0573
17.4706 22.0971 27.1966
15.3242 18.7584 23.7379
15.8713 19.4972 24.43
15.8433 19.3338 23.9197
16.1202 20.8505 26.801
16.8743 20.6562 25.6827
15.6179 19.53 24.9685
16.2999 20.17 25.179
15.239 18.7224 23.2663
14.307 18.2845 23.926
17.1779 22.4177 28.2062
15.0004 19.0267 25.2067
16.5486 21.2932 27.4163
15.6105 19.3395 24.3391
15.5166 20.6361 27.2476
15.1247 19.4784 25.8262
16.3772 20.6622 25.9028
15.0847 20.0276 26.5188
14.7461 19.1448 25.746
15.4784 20.0707 26.1106
15.1248 19.6044 25.4526
14.7 19.4961 26.0535
15.2238 20.6953 28.3211
15.8277 19.9277 25.9004
15.6464 20.4221 25.7965
13.7129 19.6456 27.8567
14.9527 20.1618 28.0468
15.0921 19.2429 25.3555
15.3365 21.0111 28.595
14.9825 19.8009 26.7288
14.6553 19.4992 26.4424
14.8654 19.8922 26.775
14.7025 20.2691 28.0072
14.8086 19.846 26.7792
14.9199 20.8411 28.8034
14.1566 18.9656 25.7588
14.8913 20.7791 28.389
13.304 18.7262 26.901
14.4117 19.8297 27.7395
15.2038 21.3112 29.886
15.0159 20.5742 28.1828
13.4856 18.5142 25.5977
13.6596 19.3903 27.1635
13.4416 19.6467 28.5435
13.7911 19.6459 28.6416
13.8399 19.4063 27.8592
13.5226 18.5909 26.5537
13.9972 19.9097 28.5244
13.3959 18.8357 26.7623
12.9003 18.7182 27.0996
13.5112 19.4646 28.2252
13.306 19.3141 28.812
14.8109 20.9199 29.7781
13.8101 19.4494 27.4907
13.0365 19.331 28.6314
12.9205 18.6879 27.6043
13.732 20.0535 28.716
12.7119 19.0402 28.7103
12.6369 18.3234 27.5998
12.9881 18.5852 27.4746
14.1858 20.9674 30.2066
12.7595 19.2396 29.0256
12.4911 18.3734 27.6437
13.9046 20.6265 30.1149
13.5445 20.6167 30.9825
12.9185 19.3636 29.299
12.7855 18.77 27.5179
11.871 18.3562 28.3159
12.4213 18.9607 28.9591
11.8544 17.8085 27.1223
11.5033 17.4042 26.5246
12.0136 18.8211 29.8429
12.7237 19.098 28.8394
11.4142 17.6085 27.8516
13.3962 21.3621 33.1971
12.3457 18.4152 28.6433
12.0368 18.2108 28.0989
11.5709 17.4781 26.3798
11.2105 18.3844 29.7069
11.7497 17.6627 27.3295
11.5634 18.4331 29.2604
12.0291 18.5708 28.7084
11.0464 17.7106 28.783
11.897 18.8708 30.5611
12.4798 19.2379 29.9699
11.4988 17.9778 28.3774
11.5137 18.5287 29.9629
12.6453 20.4938 32.7929
11.5136 17.628 27.8422
12.0486 19.71 31.8042
12.2724 19.8599 32.279
11.5975 18.2201 29.4295
12.4497 20.6229 33.4174
11.7301 18.8242 31.1262
12.0574 18.5431 28.9842
11.7622 19.9547 32.7806
11.7144 18.5554 29.8936
11.1851 18.1561 29.5369
11.0989 18.361 29.898
10.3107 17.4091 30.4944
11.8184 18.9116 30.5688
11.181 18.8951 32.0497
11.7716 19.4274 33.048
12.2819 19.6427 31.2187
10.5912 17.5318 30.1945
11.9424 19.779 32.3801
10.6284 18.3005 32.2926
11.5495 18.4465 29.6825
10.2202 17.3173 30.5788
11.5615 19.1211 31.8411
11.2877 19.5665 34.0245
12.0591 19.7239 32.1786
11.2826 19.2488 31.9342
10.4164 17.8854 30.0969
9.73206 16.7161 29.782
11.1606 19.1697 32.3185
9.93381 17.118 30.3001
10.6426 18.7295 33.0652
10.5796 17.7918 31.1422
10.7351 18.2521 30.6505
9.69372 17.0189 30.5354
10.2367 18.089 32.2779
10.6714 18.0215 30.7997
10.2762 17.5497 29.8266
9.93509 17.1862 28.3256
8.65038 16.0302 29.1594
9.42958 17.0654 30.9229
10.0159 17.6784 30.9931
10.0862 18.4044 33.6165
9.80356 16.712 29.8797
9.66194 17.0201 31.2497
10.303 17.3641 29.5504
9.59353 17.5954 32.3857
10.6758 18.7978 32.2544
9.29922 17.3497 32.5294
9.65012 17.086 30.997
9.30891 16.7074 30.7555
9.80781 17.4645 31.7885
10.7074 19.6 34.5415
9.98206 18.7187 35.0312
9.99484 17.4821 31.4671
9.75354 18.208 33.6617
9.819 18.2934 34.5977
10.1225 18.3698 34.3956
9.81108 17.1666 31.4249
9.98287 17.9083 31.6389
9.17887 17.1554 31.5147
8.9743 16.5362 30.6797
9.30847 17.8626 33.935
9.20846 16.5171 31.2014
9.58752 17.5371 32.1371
9.2662 17.4324 32.6349
9.34747 17.5912 33.0031
8.67368 15.7087 29.2648
8.87481 17.6684 35.3224
10.0273 17.6445 31.2338
9.43023 18.8684 35.2717
8.80659 16.5283 31.6825
8.59628 16.6341 33.1067
9.0075 16.1554 30.2827
8.98665 17.995 35.6129
9.43969 17.3737 32.4769
8.94411 17.3384 33.7784
9.56732 18.1567 33.2842
8.31323 16.2061 32.2906
8.81729 17.5077 34.2635
8.84953 17.1264 34.0602
8.81794 16.6267 32.2793
8.74232 16.7244 32.3965
8.42337 16.8471 34.0194
9.13986 17.546 35.2566
9.47789 17.6277 33.1722
8.5871 17.2471 35.0455
8.96741 17.251 34.0583
8.66766 16.3766 31.0554
7.89726 15.5545 31.0733
8.75882 18.332 37.1133
8.49652 16.2647 32.4515
8.19745 16.3394 33.7709
8.61202 16.5849 32.9425
8.47075 16.1099 31.9243
8.21075 15.9008 30.627
8.65365 18.146 35.7991
7.76494 15.818 33.4901
8.82767 17.5947 35.7162
9.41559 18.8894 36.8495
8.39948 16.7184 33.5412
8.20016 16.5521 33.6581
8.39351 16.822 34.3655
8.41924 16.9127 33.1672
7.67847 15.6922 32.0287
7.64405 15.6961 32.278
7.81389 16.0761 32.5667
7.36769 15.2919 31.9834
7.59038 15.9242 33.6354
7.77976 15.707 32.9995
7.80977 15.6194 30.9903
7.27755 15.3837 32.5745
7.55525 15.9254 33.3258
7.55515 15.6378 33.2163
7.69854 16.2904 34.7981
7.67737 15.1679 31.1204
7.55465 16.2081 34.2831
7.65884 15.5917 32.8935
7.62227 15.943 33.7986
7.68908 16.3472 34.5333
7.94073 17.0023 35.8821
7.31148 15.1861 34.2939
8.33921 16.8334 34.3436
7.7583 16.1546 33.2655
7.64833 16.8077 36.5072
7.85064 16.3202 34.6046
7.73006 16.737 36.3074
7.46117 15.2433 31.5326
7.25254 16.012 34.291
7.32272 15.979 34.3527
7.19546 15.3753 33.6423
7.87746 17.1337 36.0688
7.1816 15.621 34.1638
7.13675 15.9019 35.9046
7.31421 15.2987 33.4399
7.16345 15.4483 33.9402
7.5695 16.2473 35.1704
6.97768 15.311 33.9758
6.79875 14.1863 31.3081
6.83426 14.7834 32.5629
7.19999 16.2147 36.0939
7.01266 15.3675 34.9114
7.26409 15.6547 34.5408
7.36344 16.3719 36.8869
7.93572 17.0662 35.2913
6.49291 14.6513 32.844
6.47171 14.859 34.7975
7.08956 15.4273 34.4498
6.92385 15.1379 34.2559
7.29872 16.4648 36.3337
6.7389 14.4512 32.8354
7.31108 17.1342 37.7134
6.68517 14.0176 31.9565
6.83077 15.3985 34.4759
6.4923 14.5202 33.6212
6.74606 15.0135 34.1791
6.9077 15.5219 35.2131
6.969 15.4055 33.9942
6.67293 15.7888 37.064
6.8972 15.2343 36.0237
7.09548 14.9515 32.5063
6.62922 15.3805 34.6119
6.69056 15.1792 33.4902
6.31788 14.4889 32.4265
6.21691 15.0411 35.4929
6.46399 14.6043 34.8161
6.92755 15.8287 36.4075
6.70252 15.1817 34.7807
6.7572 16.3517 37.7016
6.36672 14.3761 33.8646
6.46465 14.8388 34.8289
6.6722 16.4833 38.8105
6.44547 14.2546 34.0203
6.48789 14.6653 34.2951
6.782 15.9773 35.2621
5.80967 14.1516 34.4998
6.13427 14.443 35.6745
6.57272 15.0642 35.7491
6.73875 16.0437 37.4411
6.32083 14.7885 36.2504
6.32062 14.1898 34.2372
6.63156 15.777 36.8604
6.49157 15.3659 36.5546
6.22995 14.089 33.7401
6.16233 14.517 35.5543
6.47253 15.0252 34.6419
6.05969 14.5916 34.9785
6.3429 15.3818 36.1902
5.76742 13.8033 34.7353
6.29077 14.7696 35.2342
6.21684 14.923 35.498
6.10615 14.9457 36.6646
6.42518 15.1626 34.9654
5.49208 12.5523 29.9444
5.54592 14.3465 35.1185
5.82392 14.1585 34.6334
5.43306 12.7993 32.1234
5.74204 14.0491 33.3613
5.13003 12.624 32.5662
5.68076 13.7881 34.2226
5.83765 13.3585 31.2509
5.3039 13.5649 33.8845
5.31273 12.6814 32.2334
5.66352 13.2565 29.9376
4.98701 13.274 34.3418
5.56732 13.6319 33.5845
5.53101 13.6189 33.2124
5.28426 13.0727 32.2311
5.15829 13.3997 35.2931
5.46766 12.9755 32.1351
5.33076 13.4841 34.5125
5.65068 13.5307 33.1102
5.16505 12.8619 32.5594
5.26334 12.6522 31.9031
5.25335 13.0386 32.1929
5.25065 13.2275 32.8036
5.07526 13.1412 34.0603
5.09255 12.2914 32.1039
5.35785 13.1667 32.0956
5.25655 13.7685 35.1013
5.09552 12.6607 32.5498
5.09373 12.9605 33.0947
5.09876 12.7296 31.3353
4.77948 13.0678 35.6439
5.34303 12.8477 31.916
4.75162 12.1897 32.3604
5.0087 11.9668 30.3345
4.85467 12.829 34.4111
5.54262 13.7814 33.2682
4.92161 12.6512 31.6887
4.50252 11.3477 29.5186
4.81409 13.429 36.173
5.14458 12.3045 31.4816
5.18578 14.0764 36.0286
5.04872 13.233 35.9037
5.20367 12.852 33.4875
5.13013 13.3724 33.8936
4.80235 12.9822 36.2202
5.1032 12.3531 33.1405
5.23143 13.2904 33.9893
4.96389 12.8192 32.4621
4.61081 11.8554 31.1989
4.7697 12.7536 34.2706
5.07375 13.032 32.6706
4.54948 12.1595 33.6383
4.89497 12.4421 33.2167
4.95411 13.0788 33.3322
4.65978 12.3877 33.8183
4.9474 13.2027 34.4145
4.65892 12.1839 33.2685
4.83504 12.5794 33.0651
4.67578 12.4819 32.417
4.38705 11.6705 31.854
4.42601 11.3513 29.6176
4.40963 12.6082 34.5568
4.72595 12.3248 33.3524
4.45903 11.7702 32.4059
4.65802 12.4595 34.4375
4.77273 12.3241 33.9802
5.0116 13.4187 35.8623
4.99367 12.8165 32.3486
4.44532 12.4326 35.0169
4.80696 12.9063 35.4692
4.73589 12.1753 31.7747
4.32785 11.5466 31.1213
4.43697 12.6488 34.0088
4.31563 11.5792 33.4572
4.80315 12.7483 33.8495
4.45092 12.2348 33.6822
4.49065 12.161 33.5389
4.6605 13.371 36.83
4.39576 11.2482 31.4367
4.32493 11.8021 32.9681
4.40074 11.9481 32.3353
4.29845 11.9661 32.9599
4.36741 11.7526 30.4758
4.03293 12.2053 35.8897
4.68018 13.2202 37.2179
4.56154 11.7647 32.8962
4.39348 12.4309 35.6923
4.55205 11.6776 31.1669
4.09953 11.2659 31.6977
4.20676 11.4679 31.3059
4.18764 12.6709 36.533
4.52984 12.608 36.7225
4.59643 12.4601 35.7697
4.70231 12.9269 34.91
4.19169 11.4147 31.4656
3.90827 11.129 33.8922
4.45769 11.7024 32.1743
4.11883 11.5057 33.0363
4.28393 11.9917 34.0117
4.14691 10.93 29.9327
3.96859 11.6568 34.1309
4.49396 12.9505 36.4072
4.46414 12.9513 37.2291
4.39394 11.7578 33.6735
4.13875 11.4034 32.0161
4.0264 11.5754 31.9887
3.85277 10.9172 32.743
4.21495 11.8421 32.6721
4.00216 11.7707 33.7529
3.91212 11.0494 32.9477
4.02003 10.9717 31.5982
4.00892 11.6202 33.2679
4.07938 11.8153 34.3608
4.05682 11.2592 33.0401
4.09949 11.7371 32.6763
3.94065 11.6078 33.7213
3.89293 11.2311 34.2151
4.41199 12.8313 37.0617
4.19881 11.3107 33.8059
4.36305 12.6496 34.7254
4.02071 11.8185 35.0868
4.15766 12.1461 33.8339
3.72163 10.9829 34.0545
3.96852 10.6988 30.3134
3.79891 11.9603 35.0215
4.08348 11.6685 34.4985
4.03398 12.1317 36.7971
4.30875 11.7358 32.4266
3.78646 11.5171 33.5124
3.73258 10.6598 31.9491
3.74566 10.7587 32.8209
4.01839 11.9781 33.7933
3.76239 11.3298 34.6924
4.01848 11.927 34.8892
3.88217 11.1452 31.9224
3.58181 11.1678 34.6509
3.80547 10.8166 32.8363
3.84337 11.3192 35.0014
4.07297 11.6239 33.3138
3.78083 11.4345 34.4747
3.79965 11.3067 34.6175
3.85744 10.8128 30.9775
3.45465 10.4033 32.6759
3.89724 11.4128 31.6059
3.44679 11.185 36.1544
3.89529 10.7443 30.7954
3.43913 10.736 33.7251
3.70635 11.1226 32.8857
3.59753 11.0524 33.7898
3.63722 10.8005 33.8283
3.74411 11.1429 34.264
3.7137 11.0765 35.2633
3.82994 10.9316 33.6837
3.78456 11.2237 33.8116
3.64252 10.6655 32.7499
3.61099 10.7338 32.8813
3.74211 11.7311 36.1407
3.90568 11.559 34.0115
3.6439 11.1884 34.0289
3.65218 11.224 34.581
3.61508 10.879 33.9131
3.63429 11.0415 33.8252
3.72209 11.2616 33.2293
3.4617 10.7548 33.9958
3.58923 10.8633 33.9692
3.51072 10.3067 31.6034
3.40746 10.5039 32.3356
3.45751 10.7856 33.6812
3.61087 11.152 33.0021
3.37007 10.7505 34.7729
3.50263 9.93853 31.6799
3.6821 11.6339 34.725
3.48371 10.9266 34.0137
3.38829 10.4363 33.9222
3.48641 10.6017 34.5006
3.69235 11.0578 33.0674
3.36119 9.90234 31.3868
3.34655 10.3616 30.85
3.16688 10.0184 32.1592
3.32642 10.4022 33.3497
3.49446 10.9074 33.1421
3.4605 11.1577 35.4135
3.53922 10.881 33.8855
3.46245 11.1783 34.4597
3.40467 10.6854 33.3734
3.2849 10.3089 33.5898
3.44298 10.7675 33.9527
3.37048 10.4134 35.0103
3.66788 11.1993 33.4899
3.21717 10.1252 32.9689
3.31497 10.1003 32.1813
3.20472 10.1254 32.178
3.23609 10.2283 31.8736
3.12481 10.1425 33.8895
3.41125 10.8767 36.1395
3.4782 10.2049 31.4992
3.25907 10.588 32.7582
3.08294 9.52215 31.4934
3.19157 9.85063 29.6311
2.88245 9.91375 32.2612
3.14435 10.4402 35.8819
3.45587 10.0664 33.1676
3.40362 10.9954 33.2823
3.10883 9.53082 31.1734
3.17188 10.1252 32.0709
3.14811 10.4985 34.7051
3.34074 10.1952 32.332
3.22872 10.7707 34.1479
3.18523 10.3055 33.4496
3.10267 9.80937 33.7877
3.26162 10.0776 33.2383
3.35299 10.8676 34.2288
3.11844 9.94532 32.002
3.05653 9.82432 32.1649
3.08039 10.1584 33.8038
3.15148 9.46894 31.9869
3.27098 11.0648 34.5581
3.09831 9.87049 33.1487
3.22214 10.3225 32.6946
3.02922 9.5154 31.0646
3.0069 10.5108 36.414
3.38956 10.7471 35.1672
3.23654 10.0715 33.536
3.2058 10.3642 33.571
3.18329 10.0817 32.2609
3.18385 10.6079 32.2068
2.82472 9.03455 30.0593
2.83365 9.56691 31.8376
2.91128 9.58434 31.2381
2.7879 9.24116 33.3029
3.25022 10.4851 33.3908
2.97697 9.6949 32.4083
2.86555 8.88714 29.5395
2.83577 9.48555 32.1019
2.9835 9.66861 32.4245
3.06634 10.2885 32.8597
2.87762 9.56942 33.2461
3.04041 9.77447 33.5578
3.12022 10.3343 33.0633
2.90147 9.69276 33.9856
3.13442 10.2651 33.306
2.92675 9.33395 31.6106
2.90619 9.62964 33.097
3.04839 9.94517 31.3906
2.80186 9.50697 33.1545
2.98054 9.923 31.897
2.82186 9.52217 32.9674
3.08703 10.6966 34.7113
2.88317 9.44815 32.2109
2.84735 9.54432 32.2187
2.78921 9.3006 30.2904
2.6969 9.32407 32.4074
2.91534 9.7658 32.7839
2.91629 10.1549 32.8189
2.7632 9.34872 35.7083
3.19427 9.81358 32.6746
2.94196 9.71857 31.1141
2.72711 9.44372 33.8435
2.99102 10.2699 35.3186
3.04598 9.82555 33.3376
2.91786 9.54528 32.9882
2.97828 9.95137 32.5032
2.87841 9.97662 34.1897
2.98362 9.6661 30.2366
2.60398 9.75247 32.724
2.68627 8.84889 30.9844
2.6396 8.81469 31.5374
2.78206 9.23788 31.6739
2.65329 8.71419 31.5976
2.7993 9.39205 30.6931
2.59549 8.87777 30.2315
2.60594 9.26643 33.3394
2.85245 9.49089 32.6542
2.81198 10.2512 35.692
2.93599 9.71034 33.6703
2.87771 9.79665 33.5226
2.83291 9.72917 35.5486
3.05198 9.9105 32.2978
2.72284 8.95183 30.6005
2.64645 10.3172 37.8107
3.08372 9.67802 32.7033
2.70206 9.09174 31.7747
2.75184 9.52613 33.0745
2.85502 9.77977 34.708
2.95224 9.99166 34.3094
2.8876 9.66109 32.7636
2.77055 9.3059 30.2325
2.55889 9.77557 32.4971
2.58989 9.21184 34.2186
2.81799 9.5607 31.642
2.604 9.22915 33.1003
2.67179 9.23491 31.8224
2.60495 9.28341 32.4694
2.62561 9.39016 33.538
2.70525 9.17489 32.2642
2.64704 9.09877 32.2258
2.67161 9.28961 32.2505
2.57572 9.41266 35.0202
2.84455 9.63912 34.9864
2.8105 9.44949 35.7701
2.96386 9.46994 32.7364
2.72203 8.98705 30.5709
2.56762 8.78951 29.612
2.45229 9.04614 32.1577
2.59626 8.52144 29.566
2.49756 9.2394 31.8877
2.49419 8.74287 30.7935
2.52364 9.25311 34.1301
2.76628 9.62242 34.4659
2.74718 9.2442 31.1453
2.51153 9.03524 31.7288
2.55473 9.28461 34.4026
2.66865 8.93229 31.8475
2.63022 9.74147 35.1514
2.74321 9.02645 32.6488
2.69921 9.92061 34.7874
2.69415 8.77673 31.3517
2.61421 9.55098 32.6915
2.5424 9.19054 33.1067
2.52052 8.52508 32.2143
2.57714 8.55932 31.3759
2.58337 9.26597 32.1062
2.59647 9.60537 33.8652
2.59865 9.39264 35.4748
2.77076 9.4489 34.0524
2.59944 8.616 30.9073
2.56261 9.95766 35.7367
2.76729 9.61274 34.7842
2.77489 10.0523 35.9304
2.69919 9.6038 36.3594
2.90274 10.5575 37.9491
2.87383 9.85398 33.7283
2.61878 9.39891 34.2128
2.64584 9.26063 33.7006
2.57609 8.82687 30.6215
2.38977 8.56733 33.2904
2.69561 9.59034 33.1246
2.58375 9.25754 32.1856
2.50324 9.84196 36.5654
2.73367 8.75023 30.5675
2.40404 8.73855 31.6264
2.42117 8.82835 30.3997
2.29049 8.3838 33.07
2.61426 9.64796 35.4679
2.69408 9.17624 32.2641
2.47446 8.91737 33.6033
2.60214 9.22581 31.1247
2.32937 8.65052 32.7258
2.55957 9.37692 33.3411
2.40974 8.29897 30.9499
2.33729 8.3753 31.5101
2.41354 8.92823 32.5727
2.45331 8.80983 31.698
2.36551 8.54782 31.2028
2.34354 8.42274 30.8757
2.35067 8.82457 33.7644
2.54467 9.18616 33.4273
2.47301 8.49335 30.6869
2.34111 8.57085 31.6806
2.32611 8.21135 31.2783
2.36718 8.48324 33.2083
2.60106 9.3408 31.8169
2.31511 8.20502 30.7075
2.24424 8.15358 32.153
2.48628 9.34384 33.0343
2.50746 9.28387 32.4209
2.38426 9.65011 38.8321
2.81383 8.84567 31.4498
2.37602 8.84281 31.7701
2.28073 8.13128 30.7502
2.31188 8.38116 32.265
2.43803 8.75172 31.4489
2.36396 8.50347 30.303
2.23068 8.40447 32.7794
2.47584 9.00264 30.9629
2.25894 8.37975 32.5778
2.39232 8.35456 31.6969
2.40397 8.50969 31.0706
2.31774 8.6755 30.6186
2.26361 8.76156 29.9123
2.13491 7.9459 30.4852
2.2359 8.94354 35.4733
2.48842 8.30103 32.1592
2.40392 8.49632 29.7088
2.2116 8.30815 31.0071
2.23786 8.381 31.8242
2.29514 8.15751 31.2827
2.29137 8.3832 31.9253
2.37843 9.17428 33.2627
2.34279 8.52419 32.0377
2.3231 8.4054 29.7248
2.15605 8.3765 32.2291
2.36352 8.99325 35.6728
2.57543 9.17345 33.1474
2.36551 9.04708 33.4582
2.38526 8.86612 32.2416
2.26278 8.2773 31.9344
2.23095 7.96712 30.3219
2.16082 8.11719 31.8124
2.30543 8.43886 31.1002
2.26561 8.44514 31.2893
2.23224 8.25581 32.7404
2.38706 8.27769 30.6291
2.19353 8.12125 32.2611
2.36179 8.70582 32.0381
2.2484 8.24215 31.7478
2.27945 8.31118 31.0982
2.2373 7.88956 29.7655
2.12747 8.29786 31.2151
2.21927 8.04767 31.6236
2.29379 8.70693 31.7256
2.24619 8.49204 32.1527
2.32316 8.77456 30.5149
2.11351 8.13651 31.501
2.19828 7.94686 29.9741
2.09936 7.81957 31.644
2.22182 8.29232 31.0448
2.23052 8.48705 30.9417
2.12643 7.73417 29.2378
2.0165 7.99445 32.4348
2.2615 8.2653 32.5773
2.3036 8.00476 28.0072
1.99291 8.36411 32.0296
2.16722 8.16122 32.1419
2.20722 7.58662 30.9169
2.21537 8.38099 31.6861
2.18294 8.00822 32.4212
2.35673 8.8898 32.0706
2.20797 8.05374 29.6983
2.12176 8.41269 32.5103
2.22887 8.11987 31.22
2.12951 7.61144 28.3343
1.97109 7.74629 30.7595
2.1075 7.76192 31.4993
2.21454 8.21447 31.695
2.20768 8.06793 31.313
2.23339 8.92506 32.6768
2.23103 7.99056 30.0237
2.06575 7.62043 29.8382
2.06914 7.62394 31.1743
2.20256 8.46513 31.6829
2.21354 8.70087 31.0504
2.08737 8.32194 30.6718
2.05076 7.72843 30.5728
2.09569 8.06135 31.3268
2.13019 7.74989 30.3556
2.10536 7.79464 28.4462
1.98385 7.83788 30.5266
2.10336 8.30639 31.7596
2.10557 8.18878 33.5162
2.28805 7.88111 29.0042
1.96313 7.76162 30.4625
2.07624 7.76097 30.949
2.1151 8.16433 30.5479
2.05527 7.90997 30.4453
2.05486 8.03043 32.084
2.19078 8.02799 32.4643
2.24813 8.08474 29.7637
2.07109 8.75993 32.8052
2.185 7.98184 30.2425
2.00281 8.08426 31.9049
2.11685 7.45107 29.7983
2.06644 8.40796 31.996
2.13309 7.93991 32.228
2.13688 7.90761 32.2179
2.21218 8.68573 34.7393
2.3136 7.64342 27.783
1.89224 7.921 31.2116
2.13324 8.02853 26.8687
1.79743 7.74557 33.7023
2.27308 7.78122 30.086
2.02742 8.07194 30.4271
2.02596 7.80332 30.4093
2.07177 7.59011 29.7972
2.07806 8.76648 33.3429
2.17406 7.95065 31.1874
2.07625 8.22001 33.4237
2.255 7.93908 30.3478
2.07901 8.08595 31.8053
2.09899 8.01073 32.4073
2.19609 8.47065 31.0254
2.08468 8.41412 33.0032
2.18653 7.94552 32.2366
2.18625 8.28286 29.7658
1.96986 7.76685 31.1524
2.07808 7.73161 28.4352
1.91839 7.36818 28.3248
1.87572 7.72255 29.7907
1.94935 7.1992 29.525
1.98548 8.15119 31.8535
2.10353 7.97786 29.7226
1.96096 7.28488 30.0391
1.99213 7.88753 30.9647
2.08933 8.25963 32.8884
2.18078 8.03071 29.4783
1.945 7.71806 30.3212
2.01336 7.31726 28.8156
1.9276 8.03427 32.1235
2.12999 8.08814 32.4683
2.14599 7.58873 28.9094
1.93364 8.23086 31.7573
2.09004 7.63238 29.5264
1.93356 7.25245 30.0163
1.96725 7.58079 28.3188
1.88416 7.53748 28.8396
1.9077 7.59868 30.4296
2.01009 7.136 28.8602
1.91566 7.89642 31.9197
2.07747 7.57614 29.3802
1.94812 7.7917 31.182
2.03043 7.44557 30.3529
2.00264 7.60434 30.2537
2.00446 7.94499 30.5838
2.00821 7.63009 30.7301
2.01394 7.64246 30.4132
1.99787 7.91402 31.6137
2.0178 7.52441 30.798
2.02988 7.54709 30.3254
1.99241 7.78573 30.662
2.04305 8.41639 31.6187
2.02869 7.52796 28.1169
1.8365 7.611 31.2238
2.06014 8.05097 30.6841
1.98407 7.50176 28.5679
1.8759 6.72398 28.762
1.88968 8.06004 33.1016
2.16053 7.95058 29.4343
1.94475 7.82557 29.6889
1.9472 7.23528 28.2552
1.85809 7.46144 30.0829
1.95624 7.69659 32.2781
2.08959 7.57129 29.7077
1.95407 7.63607 29.9077
1.94409 7.5964 29.4984
1.9563 7.59667 28.719
1.88883 7.83527 30.8455
1.99263 7.70984 31.1649
2.01897 7.79328 28.5217
1.85864 7.58223 29.2305
1.88199 7.06812 30.7248
2.03804 8.28445 31.1004
1.99547 7.11966 31.0965
2.04956 8.50709 32.9006
2.09217 7.50907 29.6568
1.91267 8.0393 30.9512
1.98368 7.17063 29.0699
1.89524 7.44942 31.2441
2.01503 7.74072 30.9716
2.03376 8.07734 29.9524
1.93279 8.20725 32.0825
2.06946 7.51998 31.4486
2.02847 7.79697 30.5492
1.98598 7.85103 31.7403
2.03031 7.89639 31.2895
2.00435 7.78707 30.3563
1.9381 7.72877 30.1047
1.88252 7.3365 30.8032
1.96706 7.4247 31.7167
2.04357 8.37364 31.3549
1.99701 7.65273 29.5418
1.89234 7.59203 29.7522
1.8838 7.45254 30.7351
1.97243 8.13899 32.0304
2.04277 7.47216 29.3824
1.87333 7.82289 30.01
1.93578 7.6868 31.4997
2.00369 7.51197 30.2799
1.97527 8.3722 31.1786
2.00616 7.5265 32.3745
2.07141 7.366 30.6216
1.99394 7.92446 31.7539
2.02386 7.86102 32.6129
2.09009 8.1899 30.5208
1.97935 8.0759 33.3658
2.16954 7.6936 29.3813
1.88643 7.6714 30.6267
1.97073 7.64895 29.3718
1.88967 7.15016 30.0567
1.95552 7.14656 26.8039
1.74158 7.96232 33.944
2.17981 7.52692 30.5795
1.96321 7.79711 28.6623
1.83466 7.81777 30.1398
1.9043 7.1165 30.6248
1.95822 7.80011 31.0496
1.99726 7.87225 31.0386
1.99905 8.38162 34.5686
2.21886 8.25635 30.1263
1.92125 7.49153 28.9714
1.85217 7.38756 31.7561
2.01641 7.37621 28.1886
1.8037 7.30067 30.0065
1.90484 7.51696 30.0338
1.94986 7.5615 29.7614
1.89254 7.4636 29.3924
1.85909 7.48414 31.3207
2.02054 7.8483 31.4316
1.98833 7.58365 29.0759
1.85828 7.46195 30.4428
1.96482 7.9864 30.4735
1.93375 7.48388 32.0082
2.08437 7.98328 29.6622
1.9016 7.826 31.8318
2.01406 8.32991 32.8036
2.11558 7.82426 33.1193
2.1291 7.64851 30.1107
1.92553 7.76934 32.4619
2.08588 7.79002 29.8578
1.94749 7.85063 30.4548
1.91833 7.19822 32.5468
2.10607 8.459 32.1415
2.08484 8.25561 31.4383
2.01177 7.65158 31.1674
2.01772 8.36388 33.0112
2.13259 7.47005 28.9713
1.84201 7.99104 31.9542
2.04451 7.46562 33.751
2.19197 8.14457 30.689
1.96588 8.69875 35.1667
2.25915 8.56475 35.8691
2.30955 0 0