# pn-170911/RbIIR-55-RbIIF-1280-1959.psd
# Power spectrum* (dif=0,1,2) (really just |FT|^2)
# NOTE: only the first half! (symmetric)
# weeks: 1280-1959
# 2469 clock-days, 74 excluded
# PSD: 1441
703.857 0.193489 0.0250533
31509.5 0.370539 0.0340333
213173 5.61032 0.0340384
16781.3 0.596808 0.0347328
84201.7 7.14401 0.0345005
5805.87 0.523256 0.0337739
7058.19 1.33037 0.0340869
2890.13 0.526588 0.0351347
3389.76 1.08986 0.034649
1940.33 0.524714 0.0335664
1787.55 0.73927 0.0353297
1232.91 0.551773 0.036032
1312.11 0.719104 0.0347079
983.521 0.590423 0.035711
816.188 0.668856 0.0345713
780.908 0.658518 0.0341042
694.515 0.757125 0.035975
593.706 0.682048 0.0348629
643.279 0.795578 0.0366453
543.747 0.764376 0.0345607
515.592 0.826668 0.0382236
478.539 0.847411 0.0363011
448.616 0.915066 0.0391878
469.369 0.97559 0.0367764
417.976 0.99774 0.0395992
390.379 1.03485 0.0378081
396.776 1.11672 0.0402837
390.095 1.18614 0.0400806
372.996 1.21387 0.0392239
369.696 1.36084 0.0404017
372.914 1.46172 0.0424601
366.461 1.48304 0.0402074
362.731 1.5573 0.0435879
329.642 1.55636 0.0440418
336.066 1.71256 0.0449522
346.411 1.86978 0.0468461
332.982 1.88612 0.0486
330.874 2.04182 0.0494954
343.067 2.14974 0.0505189
341.731 2.30709 0.0542373
358.641 2.50086 0.0546373
315.146 2.33231 0.0545012
325.397 2.50343 0.0563819
319.895 2.63522 0.0590935
319.108 2.77417 0.0598656
316.208 2.86448 0.0639991
324.748 3.08789 0.0668943
307.062 3.08348 0.0702637
312.008 3.26845 0.0705109
293.543 3.15662 0.0698192
289.938 3.31479 0.0751981
313.548 3.59231 0.0818587
306.898 3.7283 0.0818122
317.732 4.02997 0.0886914
287.9 3.86533 0.0862227
290.877 4.00196 0.0920836
303.877 4.26907 0.0975456
292.388 4.34456 0.101641
288.791 4.43157 0.10718
291.307 4.5472 0.110677
291.885 4.73028 0.117585
268.158 4.52281 0.119233
282.486 4.92019 0.128167
265.26 4.88611 0.124359
265.355 4.96244 0.130817
275.522 5.39448 0.146466
259.221 5.22148 0.142391
253.149 5.22619 0.146943
252.763 5.32778 0.151016
263.5 5.75983 0.165583
252.651 5.70896 0.169854
250.622 5.7874 0.173136
258.968 6.09086 0.183187
247.214 6.03381 0.189442
249.85 6.26902 0.20051
239.025 6.16227 0.198702
239.22 6.34394 0.20728
236.492 6.45475 0.215992
243.961 6.81588 0.235535
231.109 6.70896 0.23327
222.763 6.54568 0.234134
217.962 6.60939 0.239197
220.102 6.85463 0.253331
221.536 7.10378 0.269679
216.911 7.06454 0.273265
216.457 7.21667 0.284617
209.912 7.22039 0.285181
221.75 7.73567 0.311126
214.389 7.65375 0.316687
200.171 7.39937 0.307748
207.712 7.80547 0.335123
206.433 7.90051 0.3406
195.124 7.72992 0.345429
194.992 7.79531 0.350051
194.727 7.96554 0.378334
194.668 8.07955 0.378236
251.675 10.8761 0.504423
189.984 8.20063 0.395423
182.809 8.17446 0.405711
189.187 8.48608 0.425818
182.875 8.39122 0.440852
196.795 9.26953 0.483322
191.216 9.07022 0.474559
183.17 8.90464 0.48478
169.681 8.50341 0.464233
181.713 9.18451 0.515115
171.898 8.83631 0.499644
168.513 8.95757 0.514855
174.31 9.3889 0.554051
174.366 9.63221 0.576462
162.293 8.99086 0.541497
170.253 9.65552 0.600723
165.282 9.62051 0.602646
169.251 10.1369 0.644713
175.488 10.5989 0.694465
158.953 9.72669 0.639621
160.156 10.0428 0.668631
155.455 9.92105 0.677387
154.296 10.0635 0.695379
158.333 10.4962 0.738975
159.163 10.4945 0.74071
144.996 9.89796 0.71167
148.49 10.2934 0.749096
153.873 10.8899 0.82573
153.721 10.9826 0.827239
146.264 10.5853 0.814543
146.117 10.7169 0.845085
148.641 11.117 0.872603
147.044 11.2375 0.893779
142.606 10.999 0.895398
143.638 11.3196 0.933988
145.545 11.5753 0.973738
154.218 12.3565 1.04144
140.17 11.388 0.987895
139.868 11.5762 1.00517
142.877 12.0607 1.06726
134.389 11.5025 1.02762
134.645 11.7059 1.06165
133.965 11.8759 1.0941
135.124 12.1643 1.13371
128.582 11.7523 1.12151
127.62 11.8352 1.12782
126.983 11.8078 1.15379
125.654 11.856 1.19005
132.914 12.9003 1.29818
133.007 12.7759 1.28797
124.899 12.2909 1.26081
121.422 12.1082 1.27267
129.873 13.2188 1.40165
123.966 12.6719 1.36426
130.707 13.3468 1.43574
125.162 13.1422 1.43302
119.397 12.753 1.41465
124.4 13.5457 1.53574
121.035 13.2088 1.50488
126.42 13.9142 1.607
125.377 14.0624 1.62939
114.761 13.1088 1.54546
116.973 13.5138 1.63719
115.845 13.4463 1.61329
113.234 13.5242 1.66431
119.85 14.4636 1.79935
115.41 13.9635 1.74581
113.953 14.0494 1.77657
112.285 14.021 1.79621
113.207 14.3055 1.8552
112.705 14.4303 1.90048
117.877 15.1415 1.99755
114.205 14.9761 2.01568
107.225 14.1274 1.9035
106.301 14.1888 1.9401
111.776 15.1867 2.1065
108.616 14.9573 2.09729
106.02 14.6558 2.07777
105.07 14.8209 2.17223
107.505 15.2571 2.22247
105.143 15.0433 2.21069
105.944 15.3115 2.28359
103.341 15.149 2.27912
104.106 15.4003 2.34384
105.863 15.5558 2.37093
103.076 15.4379 2.40222
102.626 15.7164 2.46737
105.554 16.2878 2.59008
106.583 16.3679 2.61765
102.597 16.1467 2.62593
99.9678 15.833 2.58414
102.928 16.3775 2.72136
99.7939 16.2628 2.71932
99.2717 16.0941 2.72496
96.8726 16.1246 2.73143
95.2874 16.0946 2.81889
128.765 21.8691 3.76047
97.9793 16.6329 2.90564
94.4765 16.4391 2.9241
95.5284 16.7487 2.99927
95.6155 16.9332 3.04801
93.32 16.7906 3.07542
88.5492 16.0817 2.97922
89.2049 16.4412 3.08033
93.6941 17.4141 3.27406
95.7163 17.8679 3.39416
92.2257 17.3502 3.32491
91.0939 17.2625 3.35618
92.5684 17.7681 3.47838
92.5823 17.9239 3.51531
90.6878 17.7189 3.54215
88.7244 17.5876 3.52565
86.2357 17.2838 3.51939
86.8954 17.5615 3.61686
89.5617 18.1196 3.77152
85.3645 17.5261 3.6651
82.5159 17.2539 3.65314
81.9935 17.3247 3.7059
84.9585 17.8304 3.83482
85.6379 18.5333 4.0373
86.049 18.4343 3.98291
82.1139 17.99 3.97375
81.7161 17.9602 4.01973
85.7041 18.9035 4.22433
81.8219 18.3322 4.15757
77.6037 17.4094 3.97833
81.4834 18.6276 4.30888
81.2431 18.6249 4.34193
80.6435 18.6379 4.38506
81.1646 18.8389 4.46137
80.2999 19.0538 4.59814
79.5923 18.8206 4.52613
82.8107 19.727 4.77099
79.5874 19.2103 4.72725
78.826 19.0269 4.68019
75.8307 18.7336 4.68086
80.5746 19.9408 5.01805
83.051 20.9722 5.33943
74.1402 18.7323 4.78866
76.4741 19.2634 4.94969
77.5801 19.9153 5.20271
77.0509 19.9333 5.22977
73.8001 19.1862 5.11398
74.639 19.753 5.31889
76.7821 20.2292 5.43202
77.1215 20.5793 5.5622
72.8674 19.4114 5.29055
73.0668 19.8427 5.47266
73.5178 20.1915 5.63306
72.635 19.9398 5.56383
73.5379 20.3172 5.70442
74.4577 20.9201 5.94645
69.3188 19.6569 5.64786
71.9572 20.463 5.91635
70.3018 20.0299 5.79593
67.4883 19.7585 5.82259
71.5828 20.7478 6.11015
70.9352 20.7608 6.11134
66.695 19.7552 5.94901
71.2939 21.2211 6.45084
70.8154 21.2287 6.4431
69.0414 20.9934 6.46511
68.2872 20.697 6.36773
68.0846 21.0272 6.6165
68.6082 21.1451 6.58332
65.7504 20.3359 6.37603
65.1098 20.7581 6.6917
65.0835 20.4462 6.55372
71.1365 22.6665 7.31277
67.9537 21.8208 7.12005
66.5112 21.5403 7.06315
66.8048 21.878 7.24978
64.9287 21.4955 7.20601
65.7599 21.8267 7.30799
64.6612 21.6198 7.29956
64.9005 21.8107 7.42961
62.9986 21.3214 7.28001
65.0584 21.8102 7.47303
61.6345 21.0506 7.28974
63.6017 22.0852 7.7312
64.4321 22.7935 8.10516
62.1244 21.6644 7.64992
64.0008 22.4317 7.94259
60.2841 21.3227 7.67239
61.4707 21.8934 7.93405
61.6598 22.1055 8.08248
62.9311 22.6484 8.35329
60.9445 22.1406 8.12982
63.375 23.097 8.63981
59.3358 21.7966 8.1866
59.9961 21.88 8.20957
58.3439 22.0282 8.55678
87.6079 32.6668 12.1207
59.0377 22.5043 8.711
59.0093 22.2757 8.64694
58.5669 22.5112 8.74822
59.0663 22.7247 9.00306
59.5131 23.1814 9.19143
58.2899 22.8191 9.08928
57.1586 22.5868 9.01915
57.9422 23.1179 9.39837
58.7081 23.0277 9.20789
55.8676 22.6984 9.30349
54.2252 22.0714 9.10886
56.9239 23.1925 9.56497
54.3865 22.4723 9.39699
54.9321 22.8038 9.5792
57.433 23.7345 9.94108
53.0237 22.0734 9.31264
52.1737 22.0953 9.46738
54.1044 22.9457 9.89688
55.5506 23.6401 10.1064
52.2384 22.4895 9.77086
53.6963 23.0706 10.0597
52.9501 23.0353 10.1105
52.5801 23.1097 10.2794
54.2348 23.8474 10.5514
50.7781 22.5055 10.1396
53.4433 23.7584 10.6597
51.2467 22.9853 10.4067
50.3484 23.0872 10.7172
51.8634 23.261 10.6611
50.9158 23.1963 10.7344
50.7189 23.4337 10.873
49.7794 23.1468 10.892
51.526 23.9963 11.3195
49.3876 23.1731 11.0008
48.8382 23.2748 11.174
50.1675 23.6868 11.3845
51.0988 24.2925 11.6902
49.3158 23.668 11.5449
50.5349 24.2721 11.7851
51.0953 24.7826 12.1388
47.9521 23.3466 11.4815
48.2563 23.689 11.7075
49.9931 24.9267 12.4353
48.1251 23.9151 12.0497
47.147 23.4092 11.7305
47.3842 24.011 12.1965
45.5971 23.4604 12.1779
47.3516 24.0239 12.402
48.6269 24.8157 12.7605
46.4712 23.8578 12.4097
45.5491 23.3027 12.2257
47.9756 24.6313 12.7781
45.495 23.8913 12.7382
46.6977 24.6245 13.0715
45.231 24.1439 13.0707
47.318 25.0075 13.321
44.9075 24.2373 13.2219
45.4701 24.1515 12.9974
44.4817 24.152 13.3238
44.8479 24.3443 13.3559
43.5152 23.6754 13.144
43.4029 24.1163 13.6433
43.7514 23.7962 13.1549
43.7756 24.3042 13.6846
42.8867 23.9176 13.517
41.7576 23.429 13.3386
44.4886 25.2352 14.3557
43.5132 24.5626 14.0843
42.9881 24.2874 13.9472
43.3973 25.1172 14.5782
42.3753 24.2858 14.0915
42.132 24.2681 14.1877
40.3467 23.2748 13.6134
41.1288 24.1022 14.306
41.7042 24.8398 14.8973
40.4302 24.0428 14.5046
40.6786 23.9157 14.3222
40.0271 24.1038 14.7528
40.2547 23.9678 14.5649
41.6696 25.1151 15.201
39.2268 24.029 14.9006
39.9864 24.3748 15.0681
40.6946 25.0325 15.4807
39.5539 24.2827 15.1642
39.8483 24.792 15.7454
40.8717 25.2947 15.8054
39.8211 24.7669 15.6566
38.3373 24.1995 15.4443
40.2887 25.1156 15.873
38.8404 25.098 16.3013
37.2528 23.5981 15.3244
39.2271 25.3001 16.4765
39.5952 25.3828 16.4091
37.1948 24.4248 16.3459
38.7825 25.198 17.1747
56.3052 36.1475 22.6073
37.1149 24.5766 16.5523
37.5898 25.0096 16.833
36.1184 24.0863 16.3568
36.3269 24.0739 16.1504
35.7397 23.8637 16.2215
36.4519 24.6959 17.0597
36.6354 24.5316 16.8326
35.8375 23.8932 16.274
35.5298 24.5918 17.0765
35.6308 24.2971 16.9429
36.7871 25.2155 17.5257
36.9506 25.4823 17.8066
35.579 25.0124 17.8393
35.0273 24.4795 17.3837
36.4961 25.5539 18.0916
35.0904 24.5217 17.3646
35.4341 25.4246 18.3189
35.9928 25.6058 18.4669
34.5778 24.6809 17.8484
34.4467 24.8546 18.1341
34.3428 24.801 18.1762
33.8666 24.4524 17.7543
32.8256 24.0055 17.8632
33.644 24.7677 18.4534
34.9407 25.7042 18.9363
33.9763 25.2408 18.7729
33.5944 25.1803 19.1594
33.4412 24.707 18.4322
31.8099 24.0924 18.4997
32.5389 24.1971 18.2624
34.197 25.9877 19.8438
32.1776 24.1823 18.5699
32.2238 25.0793 19.7481
31.8283 24.268 18.8788
32.2317 24.7857 19.2684
32.1091 24.9692 19.5601
32.2997 25.2485 20.0041
31.9929 25.0376 19.9134
33.2205 25.7865 20.5212
31.261 24.36 19.3094
32.4886 25.4657 20.1575
31.8374 25.5588 20.5398
31.1006 24.6723 19.8874
30.6387 24.4809 19.9329
30.772 24.4271 19.6805
30.9756 25.2507 20.605
30.4016 24.6986 20.3956
30.96 25.3421 21.0644
30.0665 24.2959 20.0649
29.2631 24.1616 20.4078
30.5945 24.8768 20.3906
29.0659 24.3668 20.6886
31.1976 25.5427 21.1341
29.6874 25.3271 21.7753
30.6093 25.5523 21.6194
29.794 24.9545 21.1448
29.766 25.238 21.6132
28.7952 24.4632 20.9341
27.8179 23.9327 20.8948
29.2312 25.1339 21.6895
29.1256 25.1975 21.9721
27.8912 24.1966 21.3911
28.1096 24.0999 21.1266
28.4868 24.8188 21.9439
29.048 25.5269 22.6293
28.2909 24.2442 21.3192
27.5186 24.3803 21.8862
27.9677 24.5688 22.1237
27.624 24.4086 21.9199
28.2226 25.025 22.507
27.0037 23.9125 21.6127
27.7155 24.9942 22.8505
27.2737 24.5254 22.4599
27.8145 25.3944 23.3929
27.2073 24.5245 22.407
26.8613 24.4967 22.7068
27.0968 24.7411 22.958
28.0379 25.9966 24.2775
26.3077 24.242 22.7361
25.8098 24.0349 22.6298
26.0119 24.4269 23.3531
26.8692 24.8416 23.2064
27.0964 25.5043 24.0937
26.7593 25.7988 24.8386
25.7484 24.3129 23.6185
26.3369 24.7672 23.8449
26.0975 24.859 24.2052
26.503 24.9905 23.8639
25.5357 24.5369 24.0621
26.1889 24.9531 24.217
25.2353 24.386 23.8593
24.641 24.0728 24.1247
25.7503 24.6607 24.1723
24.6805 24.3976 24.5009
25.6662 25.6351 26.965
36.5286 35.5691 32.9407
25.2518 25.289 25.7456
24.8068 24.7773 25.0139
24.0239 24.083 24.6217
24.9298 25.1998 25.7032
25.1712 25.3063 25.9534
24.881 24.9004 25.4079
24.7582 25.006 25.46
23.7294 23.8948 24.4194
24.5326 25.3799 26.5156
24.2192 24.8137 25.6751
23.4513 24.087 25.1201
23.2626 24.3573 25.7024
22.6369 23.3544 24.5413
23.2896 23.9788 25.2659
23.9273 24.7594 26.0222
23.5553 24.569 25.766
23.1247 24.639 26.4872
24.0254 25.2064 26.6725
22.6349 24.1702 26.1231
22.5987 23.9208 25.7683
22.4312 24.0892 26.3673
22.8547 24.3846 26.5149
23.1909 24.4734 26.4033
22.5956 24.7701 27.3035
23.0682 24.7985 27.0831
22.873 24.4902 26.7435
22.7733 24.7739 27.1991
22.7479 24.9019 27.4363
21.8215 24.0184 26.8605
22.3157 24.4244 27.0549
21.8469 24.3851 27.4422
21.6569 24.1668 27.2466
21.1384 23.0389 25.8631
21.7908 24.4762 27.7577
21.8445 24.1522 27.2081
21.5909 24.4372 28.006
21.3501 23.7108 26.9469
21.2296 24.0433 27.4701
20.9115 24.0934 27.9325
20.9122 23.6426 27.1854
20.8794 23.9091 27.9852
20.8607 24.0643 28.4144
21.554 24.2129 27.6836
20.9399 24.2294 28.2836
20.851 24.1046 28.2458
20.5343 23.8694 27.9748
20.4275 23.9516 28.4425
20.151 23.6211 28.2533
21.0481 24.7571 29.4402
20.6361 23.9108 28.3728
20.2855 23.8832 28.5234
20.1461 23.9162 28.7245
19.2538 22.818 28.038
20.3844 24.1872 28.9053
20.0442 24.2022 29.5678
20.0128 23.9443 29.1966
19.4008 23.5304 29.0602
19.7402 23.4593 28.6213
19.6535 24.0277 29.6949
20.0477 24.083 29.3581
19.6539 24.2506 30.0355
19.4629 23.6367 29.1861
18.9692 23.3598 29.6391
19.7092 23.9416 29.4174
18.9956 23.9821 30.6719
18.6965 22.5747 28.0303
18.825 23.6745 29.8454
18.6942 23.5227 29.7202
18.9156 23.9012 30.5498
18.5975 23.3624 29.9088
18.7131 23.5052 30.2022
18.4571 22.8011 28.8991
18.9156 24.1111 30.6341
18.6144 24.1055 31.423
18.3541 23.4183 30.3002
17.8585 22.4486 29.0735
18.0494 23.4541 30.4331
17.8238 23.0965 30.0857
17.9173 23.6898 31.3066
18.5304 24.0396 31.3764
17.4935 22.8886 30.7677
18.3803 23.9414 31.9828
18.7272 24.031 31.2019
18.003 23.5496 31.2422
17.5373 23.4955 31.3417
16.9984 22.5274 30.8146
17.5694 23.0704 31.0935
17.8434 23.0235 30.7023
17.2933 23.1606 31.3575
17.5227 23.1924 31.5057
17.2024 22.9994 31.3791
18.256 24.1881 32.6453
17.0117 23.5475 32.8547
17.7683 23.8649 33.3431
17.3155 24.2708 37.6578
27.5697 35.006 42.6719
16.9568 23.3368 32.8776
17.9183 24.2004 33.3789
16.4195 22.2894 31.3693
17.4523 24.0222 33.6371
17.4805 23.9904 32.9433
16.8377 23.4456 32.6427
16.025 22.5162 32.1805
16.1793 22.5922 32.061
17.1236 24.2803 34.8938
16.2445 22.0323 31.1091
15.6171 22.1776 32.1711
16.5271 23.0916 32.652
16.0112 22.9876 33.2492
16.4556 23.3139 33.5733
16.1665 22.9333 33.215
15.7555 22.2119 32.1114
15.6588 22.4145 32.7873
16.3157 23.461 33.9213
15.6604 22.5865 32.9997
16.0355 22.9324 33.1384
15.7098 22.9355 33.5513
15.5054 22.7886 33.7195
15.6596 23.1461 34.6912
15.4408 22.2605 32.893
15.3333 22.4191 33.2107
15.481 22.8573 34.1886
15.4166 22.7556 34.2472
15.6289 22.811 33.9826
15.659 23.4591 35.3454
15.0917 22.1274 33.824
15.2969 22.4659 33.6315
15.6442 23.0781 34.2825
15.0358 22.4809 34.3422
14.9152 22.3809 34.1427
15.0063 22.4819 34.4378
15.1071 22.9082 34.9652
14.4415 21.861 33.92
14.5288 22.1161 34.4248
14.7584 22.2245 33.8339
14.1939 22.0282 34.6038
14.6794 22.3397 35.0635
14.4025 22.0091 34.6768
14.5095 22.1561 34.4255
14.7073 22.6862 35.1741
14.1059 21.7862 34.7067
14.4413 22.4104 35.4797
14.5359 22.1174 34.5325
14.3268 22.7865 36.3069
14.7028 22.8769 36.1863
14.3697 22.4423 35.6394
14.395 22.7355 36.6216
14.2801 22.334 35.322
13.5702 21.3425 34.7589
14.2779 22.7789 36.6869
14.2078 22.6282 36.8752
14.5428 22.9994 36.7497
14.101 22.2097 35.6379
13.8711 22.5253 36.5823
13.6613 21.7794 34.9199
13.1329 21.5317 35.7447
13.5896 22.1748 36.7184
13.2642 21.2548 35.3676
13.8406 22.2805 36.5958
13.3665 21.8221 36.6331
13.4419 21.2508 35.1503
14.0224 22.9092 37.162
13.0777 21.4281 36.1888
13.6114 22.2249 36.5378
13.3259 21.9524 36.6589
13.4124 22.5474 37.6505
13.2014 21.6557 36.3932
13.0118 21.587 36.6371
13.2447 21.9819 36.9015
13.0432 21.9203 37.1605
13.1306 21.91 37.2016
12.608 21.1268 36.3546
12.5326 21.006 36.2583
13.0048 22.0404 38.0477
13.0215 21.4848 36.7335
12.8624 21.713 37.3421
12.5742 20.9676 35.9479
12.5761 21.3535 36.4606
12.4108 21.1757 36.242
11.9928 20.5526 36.099
12.3065 21.0606 36.566
12.4486 21.7841 38.0157
12.1471 20.6962 36.6791
12.4422 21.4515 37.2005
11.9562 20.5239 36.1373
12.196 21.612 38.4118
12.0708 20.9778 37.5288
12.3085 21.2053 37.5581
12.0963 21.0242 37.3732
12.2746 21.6479 38.0536
11.8773 22.6082 46.9472
18.7181 31.255 48.5644
12.0431 21.0019 37.5364
11.6974 20.9497 37.7823
11.8427 20.8696 37.3947
11.5161 20.2979 36.3897
11.2942 20.5237 37.8969
11.8736 21.1433 38.2446
11.4868 20.5609 37.5259
11.4903 20.6681 38.2682
11.4247 19.9533 36.4526
11.5814 20.8114 37.6356
11.4533 20.9426 38.9638
11.8492 21.1794 39.1763
11.8999 21.6537 39.8547
11.9593 21.6636 39.5455
11.4996 20.7778 38.5777
11.263 20.5042 37.8501
11.3086 20.7376 38.5161
11.368 20.9181 38.3462
10.8107 20.1873 38.4324
10.9853 20.2806 38.4642
11.1927 20.9313 39.0874
10.609 19.5605 37.5825
11.135 20.3909 38.2045
10.8583 20.1255 38.1858
10.994 20.546 38.5985
10.6604 20.1173 38.8697
10.7313 19.9597 38.2108
10.8765 20.7426 40.3484
11.0951 20.2345 37.9264
10.6982 20.4057 39.1118
10.5617 19.851 38.253
10.7746 20.6979 40.4357
10.9149 20.5302 39.2748
10.4934 19.7579 38.2758
10.6008 20.1711 39.0334
10.5275 20.1619 38.9703
10.1031 19.2678 37.7599
10.1892 19.6116 38.5592
10.641 20.3036 38.7616
10.0722 19.7958 39.038
10.0845 19.5722 39.182
10.3405 19.9633 39.699
10.4032 19.8864 38.4203
9.98867 19.8629 39.6983
10.0427 19.8861 40.074
10.2342 19.8635 39.4391
9.97448 19.8909 41.4949
11.0676 21.2975 41.0014
10.1959 20.1853 40.1917
9.91543 19.2306 38.5394
9.92129 19.7987 39.8797
9.91712 19.8651 39.9688
9.99259 19.5548 39.2576
9.49237 18.9767 39.6837
10.0959 19.4795 39.0791
9.72421 19.4848 39.6576
9.95855 19.9527 40.6049
9.91655 20.1808 41.6287
9.82959 19.1195 39.3375
9.76525 19.3152 39.1256
9.78734 19.7424 40.2548
9.65803 19.4615 39.1257
9.0561 18.5967 39.2025
9.47871 19.1293 38.7388
8.91066 18.4389 39.5343
9.70355 19.6564 40.5434
9.34966 19.2346 40.4916
9.33778 19.1266 40.5865
9.42289 18.9774 39.0269
9.09636 18.8761 40.1367
9.42192 19.2368 40.2418
9.02822 18.4587 39.104
9.21509 18.805 39.3689
9.11434 18.9143 39.7622
9.09043 19.028 40.5422
9.16564 18.7732 39.6333
9.06436 18.9241 39.5985
8.86203 18.5427 39.3598
8.82076 18.7564 40.6403
9.1597 19.6675 42.7307
9.35444 19.137 40.3644
9.03568 19.2935 42.0145
9.20585 19.1203 40.3825
8.68432 18.585 40.8304
9.11406 19.4051 41.1964
8.74976 18.6238 41.5423
9.23891 18.9503 39.9926
8.8909 19.3547 41.7318
8.51253 18.2708 40.6938
9.03393 19.2527 41.4267
8.75459 18.6883 40.0975
8.2988 18.1353 40.1607
8.35848 18.1789 40.262
8.19019 17.8799 40.554
8.44573 19.7237 53.9086
13.9028 26.939 47.258
8.30358 19.0196 42.906
8.61662 18.8887 42.0268
8.63375 18.5593 40.636
8.09724 17.6683 39.7432
8.42406 18.495 40.8839
8.46102 18.4781 40.7876
8.14962 18.1684 41.3392
8.43866 18.8074 42.7407
8.47999 17.9577 40.0388
8.36036 18.6961 41.9354
8.34923 18.2802 40.8587
8.19152 18.4361 41.9465
8.25985 17.8419 40.2415
8.22771 18.3712 41.9992
8.38482 18.5199 41.4613
7.96875 17.8708 41.1333
8.20886 18.1023 40.8854
8.03506 17.9407 40.5408
8.12007 18.4141 41.7657
7.87772 17.5667 40.5876
7.96749 17.8766 40.986
7.65621 17.4907 41.7158
8.18429 17.8569 40.7266
7.69743 17.3705 40.0616
7.71735 17.5115 40.8251
7.67893 17.3273 40.2576
7.88337 18.0452 42.2048
7.93614 17.8092 41.2975
7.78338 17.7224 40.9665
7.64945 17.446 40.6368
7.49978 17.4218 41.5127
7.81223 17.7768 41.1247
7.66093 17.6903 41.572
7.7299 17.5441 40.408
7.32549 17.2111 41.1572
7.80445 18.4865 43.3436
7.72422 17.804 41.7999
7.3713 17.3075 41.4296
7.4462 17.4801 42.2561
7.83688 18.113 41.938
7.34115 17.0006 40.7383
7.51024 17.7831 42.1577
7.39421 17.4328 42.7274
7.76703 17.9068 42.3006
7.31346 17.0144 40.4867
7.34829 17.3792 41.3542
7.42415 17.9287 42.7177
7.12888 16.9758 42.3275
7.48399 17.5396 42.6291
7.28409 16.789 40.4413
7.20767 17.2864 41.8235
7.22036 16.6974 40.5683
7.09057 16.7818 40.9586
7.1084 17.1066 41.9713
7.23406 16.985 41.4495
7.13761 16.8686 41.1279
7.18793 17.2805 41.9601
7.09204 17.0964 41.1863
6.89508 16.8572 42.1459
7.05344 16.959 42.5489
7.12946 17.1339 42.8835
7.03673 16.7775 41.6216
7.07164 17.1071 41.997
6.93256 16.8284 42.35
7.13172 17.2442 42.2271
7.00034 17.1646 42.2371
6.86894 16.9848 42.8811
7.07215 17.0877 42.1182
6.83027 16.5746 42.1251
6.87286 16.628 41.4345
6.77644 16.9934 43.1879
6.89071 16.4486 41.182
6.91313 17.467 44.0276
6.82871 16.6713 42.4691
6.78746 16.5924 42.3364
6.80859 16.4347 42.1526
6.85978 16.5333 40.3785
6.50529 16.5349 42.2008
6.65452 16.56 42.5354
6.87952 17.1996 43.0049
6.61441 16.4026 41.3086
6.31767 15.5005 39.965
6.5621 16.9498 42.9088
6.37122 15.9486 42.2006
6.68893 16.6417 42.214
6.56134 16.4742 42.154
6.52384 16.6611 42.4252
6.44818 16.5637 43.5102
6.62377 16.3951 42.2137
6.49034 16.3884 42.5847
6.48306 16.6788 43.1127
6.54793 16.9553 45.0757
6.6101 16.4487 43.7821
6.71395 17.097 45.1962
6.69098 18.4811 59.9571
10.8489 25.514 54.2371
6.86121 17.4582 45.0563
6.68466 17.3214 44.7932
6.4262 16.5679 44.0422
6.4743 16.9066 45.1032
6.49931 16.5372 43.1501
6.33161 16.1702 42.2414
6.19306 16.4893 44.4116
6.45123 16.4819 43.4613
6.23696 15.9732 43.1278
6.38298 16.2673 42.1553
6.05503 15.925 42.3966
6.09489 16.1431 43.4134
6.24165 16.1329 43.0171
6.09045 15.6903 41.0424
5.97085 16.4621 44.9375
6.34236 16.3949 42.7029
5.76733 15.3717 42.3082
5.89404 15.3615 41.96
5.98974 15.3616 40.857
5.86256 15.6235 41.6379
5.75729 15.4243 42.1534
5.80383 15.5268 43.8754
6.19639 15.9514 42.2754
5.90104 15.5998 41.6197
5.87369 15.7371 42.6472
5.75515 15.1695 41.8598
5.86441 15.5288 41.5776
5.77374 15.5527 42.6186
5.85556 15.6899 42.791
5.72559 15.3911 43.0284
5.85651 15.6038 43.6413
5.97829 15.4445 42.3622
5.89072 15.3203 41.3356
5.72566 15.4453 41.6109
5.60001 15.252 42.1437
5.65363 15.0836 41.4336
5.65853 15.5203 43.5114
5.8051 15.6878 43.7599
5.85066 15.6246 42.6884
5.76003 15.8851 43.8086
5.66108 15.1902 42.9868
5.74994 15.5098 42.8308
5.72499 15.6501 43.3574
5.5477 15.4644 44.054
5.69788 15.2002 41.8844
5.41644 14.9592 42.4197
5.4967 15.21 42.6668
5.54103 15.1207 42.6165
5.52455 15.1052 43.0698
5.64613 15.4875 43.4712
5.52454 15.1951 43.922
5.72779 15.6995 45.3464
6.17612 16.9704 44.6914
5.3571 14.8434 41.9356
5.24927 14.465 41.5583
5.39372 15.135 42.9563
5.32565 14.3674 40.8097
5.24917 14.8659 42.7753
5.41455 14.9227 41.791
5.27096 15.3825 44.0317
5.25091 14.4898 42.5562
5.46527 15.3812 43.2079
5.16044 14.1817 40.9879
5.24596 15.1157 44.1275
5.37228 14.661 42.364
5.2907 14.8776 43.5123
5.42936 14.9439 42.4536
5.25572 14.9322 43.052
5.21156 14.2615 40.196
5.03675 14.7025 42.7033
5.1768 15.0407 44.1999
5.19642 14.367 42.3255
5.24187 14.8246 42.7836
5.13641 14.6134 42.8421
5.18372 14.6551 42.2316
5.09019 14.5659 42.612
5.13486 14.759 42.823
5.10229 14.7939 42.999
5.03475 14.6072 43.3519
5.06475 14.2404 42.4321
5.04577 14.2005 42.1387
5.1565 14.9351 42.5807
4.88928 14.2052 42.9063
5.10299 14.6936 43.5715
5.17874 14.7285 43.0263
5.02186 14.3481 40.9262
4.68137 13.5782 41.1827
4.77048 14.0333 42.9997
5.05864 14.3136 42.3222
5.00435 14.4174 42.0931
4.87329 14.1307 41.4916
4.70197 13.8448 42.5818
4.93641 14.4354 42.9183
4.9098 14.7619 44.7966
5.08695 16.4607 64.2234
8.25746 21.2017 47.3373
4.78643 14.7495 44.7186
4.99094 14.3189 43.1082
4.87505 14.2133 42.5261
4.7974 13.755 41.6802
4.90016 14.4833 43.302
4.84789 13.9179 41.7643
4.74009 13.9044 41.6452
4.70129 13.6596 42.1212
4.74897 13.6597 40.846
4.6507 13.8513 42.8985
4.78499 14.1337 42.8128
4.8306 14.177 43.0434
4.77342 14.4818 44.3959
4.88708 13.9009 41.9483
4.65943 13.7087 41.8242
4.70544 14.2914 42.9702
4.62484 13.5722 41.5605
4.58041 13.6641 42.8468
4.78648 14.2608 42.8337
4.63586 13.8989 43.1488
4.68362 13.9718 42.5854
4.55405 13.6696 42.5992
4.62528 13.8534 41.8713
4.45916 13.6537 43.2819
4.67484 13.5627 41.6574
4.56555 13.6371 41.7921
4.56459 13.6779 42.2063
4.60313 13.9592 43.0498
4.62411 14.2033 43.2718
4.50272 13.2405 41.3182
4.41535 13.3976 42.0698
4.44561 13.3707 42.1016
4.50589 13.5154 41.9091
4.43987 13.4603 42.8417
4.55391 13.6817 43.1987
4.56751 13.6587 41.5693
4.3457 13.5485 42.7425
4.53506 13.8809 42.9059
4.43968 13.4895 42.203
4.34723 13.2248 42.0401
4.36855 13.6906 43.148
4.41778 13.5694 42.9778
4.48762 13.8704 43.6955
4.52219 13.892 43.6637
4.45406 13.6006 42.8834
4.33859 13.4163 44.0532
4.53055 13.443 42.5167
4.41421 13.386 42.8827
4.52542 13.8627 43.2449
4.38293 13.0004 40.9434
4.23748 13.1568 41.9011
4.30801 13.4098 42.7721
4.31182 13.1922 41.9152
4.26745 13.3147 42.1526
4.30934 13.4398 43.2026
4.36001 13.4811 42.5693
4.24196 13.2962 42.2067
4.16226 13.1001 42.9008
4.31843 13.5339 43.903
4.37446 13.2846 42.2279
4.18639 12.8564 41.4556
4.21559 12.9822 41.6373
4.21584 13.0555 41.76
4.24446 13.4501 42.7832
4.19924 13.4076 44.1031
4.36676 13.5084 43.1623
4.16992 13.2059 43.504
4.27925 13.2969 42.8236
4.16807 12.878 41.697
4.02451 12.7289 43.259
4.3998 13.9684 44.3447
4.18823 12.6162 40.6174
4.01035 12.9681 42.7773
4.17237 13.2666 42.7681
4.05384 12.9538 43.6228
4.1649 12.9729 42.4279
4.13337 13.0688 42.47
4.08071 13.0976 43.2307
4.16716 13.1277 42.6097
4.08451 12.9121 41.1739
3.87087 12.2968 41.3783
4.02644 13.0065 42.8417
4.06057 12.9708 43.0916
4.13444 13.2554 43.8398
4.21666 13.6516 43.0572
3.96511 12.7623 42.4184
3.96904 12.7937 43.4037
4.10967 13.1388 43.8234
4.10764 12.9018 41.8173
3.86646 12.4179 41.5938
3.86094 12.4081 41.8694
4.00646 13.0035 42.5843
3.91793 12.7261 44.0358
4.13059 13.1793 42.8149
3.93132 14.6241 64.9103
6.55452 18.2731 45.203
3.89059 13.3076 43.3675
3.91317 13.0653 42.5816
3.82993 12.4043 42.4964
3.97452 12.8899 42.478
3.87399 12.1199 40.5522
3.81991 13.1651 42.7539
3.80574 12.433 42.5057
3.91759 12.8616 44.6953
4.06728 12.6728 42.2268
3.92592 12.9514 43.2049
3.90086 12.7696 43.1643
3.95567 12.82 42.4774
3.87685 12.6818 41.5616
3.66925 12.2303 42.5491
3.91496 12.7086 41.9663
3.74151 12.5279 43.023
3.83913 12.5568 42.2516
3.78948 12.5029 42.7086
3.83574 12.6762 42.8812
3.80552 12.3392 42.072
3.76311 12.2502 42.3789
3.84554 12.6912 42.5566
3.7304 12.0509 41.7548
3.71437 12.2629 43.1824
3.90707 12.5424 42.2384
3.79312 12.5626 42.7605
3.79468 12.3938 42.5746
3.78949 12.3184 41.1689
3.61865 12.1105 42.0942
3.71935 12.3896 42.0958
3.67713 12.1306 41.9236
3.70036 12.5959 43.474
3.7903 12.5304 42.8025
3.6858 12.1445 41.3927
3.57127 11.8438 42.5328
3.74911 12.1997 41.4754
3.65631 12.224 41.1783
3.55657 11.5485 39.3792
3.47664 11.8688 42.5655
3.73394 12.3605 41.9673
3.61783 12.0584 41.9209
3.54428 11.6552 41.9204
3.6602 12.0814 41.5194
3.64968 12.2817 40.7031
3.47989 12.0326 42.0986
3.58835 11.9809 42.1978
3.62665 12.227 41.4904
3.5218 11.6638 41.2458
3.54153 11.6379 40.597
3.55668 12.0458 41.6099
3.52099 11.7728 40.8766
3.51919 12.1051 42.5242
3.59154 12.0353 42.436
3.57629 11.591 41.3406
3.55071 11.9366 41.1395
3.52749 12.0976 41.9375
3.4933 11.8202 42.5304
3.59404 12.2801 43.1557
3.63694 12.2472 42.2654
3.54934 12.0525 41.5701
3.53888 12.3484 43.4311
3.52486 11.7757 42.0582
3.54719 11.829 41.5089
3.4939 12.1396 43.4588
3.62907 11.8319 41.7183
3.48385 11.7631 41.1538
3.43647 11.946 41.7846
3.43395 11.4421 41.1423
3.43997 11.9579 42.419
3.48476 11.7706 41.2158
3.39947 11.7941 42.056
3.44199 11.842 42.4321
3.50147 12.0721 42.0115
3.47366 12.0146 42.6886
3.44471 11.5422 41.0205
3.35511 11.8545 42.1478
3.41074 11.8338 41.9301
3.41913 12.0383 42.6801
3.41721 11.6884 41.8815
3.3695 11.6026 42.6074
3.47927 11.5728 41.6811
3.42167 11.8768 42.4331
3.4596 11.8207 42.1154
3.39915 11.5778 41.6882
3.39697 11.9786 42.9318
3.44284 11.9657 44.0813
3.53691 12.4439 44.7999
3.57112 11.9305 42.3188
3.42927 11.7512 42.2489
3.4573 12.0394 43.3703
3.45174 11.7333 42.3141
3.47906 11.8137 41.8189
3.32953 11.7958 43.0004
3.63783 12.9143 45.3408
3.51722 14.5793 70.7588
5.81419 16.5711 46.1224
3.57008 12.9931 46.1223
3.71934 12.6959 44.6619
3.49445 11.9136 41.9456
3.36906 11.4684 43.1311
3.43806 11.7354 42.2807
3.40839 11.6517 41.0456
3.22263 11.3884 42.4307
3.46604 12.3569 42.4307
3.28093 11.9743 44.2028
3.44865 11.5771 42.0681
3.31876 11.629 41.4626
3.24894 11.5824 41.3042
3.18227 11.7422 43.3245
3.32568 11.3468 42.0934
3.26935 11.2309 41.3082
3.28678 11.8102 42.1182
3.24195 11.3979 41.8451
3.20084 11.1607 41.2175
3.21119 11.3007 42.0917
3.28704 11.553 40.9515
3.15363 11.0557 40.2132
3.08985 11.0016 41.5358
3.21313 11.3541 41.5636
3.21448 11.4147 41.3888
3.18436 11.3339 41.4357
3.21855 11.4171 41.1922
3.13207 11.122 41.2252
3.17661 11.3345 41.0941
3.10122 10.989 39.8717
3.04016 11.2599 42.329
3.23268 11.6247 43.2082
3.23651 11.5704 42.216
3.20702 11.0281 41.6294
3.16503 11.3453 40.6647
3.06275 11.0253 41.5592
3.15019 11.1853 39.8315
2.99199 10.9064 41.9406
3.14772 11.1028 41.1274
3.08201 10.9763 40.9247
3.10285 10.9228 41.0973
3.11175 11.018 40.981
3.07507 11.1455 41.0148
3.06006 11.0081 39.9507
2.95535 10.706 40.1785
3.0242 10.9398 40.938
3.06202 10.7833 40.2923
3.10194 11.4227 41.2072
3.07031 10.9844 41.1426
3.08483 10.9595 41.0466
3.09042 11.2408 41.4856
3.11478 11.2664 41.2491
3.04043 11.1031 41.6042
3.04988 11.2105 43.3505
3.15213 10.928 40.7779
3.0594 11.1489 41.758
3.08167 10.8458 40.128
3.03862 11.0938 42.2564
3.14161 11.1326 40.5079
2.95351 10.7957 40.8994
3.00437 11.0564 40.3148
2.92403 10.5192 41.098
3.07439 11.1685 41.0251
2.99025 10.6157 40.0691
3.00404 11.0869 40.949
2.97174 11.0658 42.4376
3.06886 10.8313 41.375
3.01104 10.6126 40.6387
3.01183 10.8447 39.9446
2.91595 10.7058 39.5591
2.88104 10.5291 40.2768
2.94127 10.5349 40.1129
2.97962 10.7191 40.4286
2.96343 10.6508 40.3263
2.95381 10.7632 40.475
2.96353 11.2207 42.4618
3.05918 11.0365 40.9317
2.94534 10.7577 40.5341
2.94051 10.6956 40.8581
2.91056 10.8591 40.4781
2.88443 10.2695 40.2986
2.90653 10.8644 41.4458
3.0118 10.9755 41.3651
2.96106 10.7085 41.4299
2.93227 10.5952 40.7818
2.96029 10.8448 41.0962
2.97417 10.9941 41.1876
2.95753 10.7179 40.4107
2.8884 10.8275 42.6695
3.02198 10.8065 40.3121
2.87882 10.6277 40.4089
2.86869 10.8275 42.5238
2.99915 10.8335 39.9148
2.84956 10.5933 40.1948
2.86123 10.668 40.6247
2.92635 13.3708 70.7969
5.04637 14.6837 40.7016
2.91183 11.1382 40.756
2.87465 10.6835 40.9377
2.91805 10.6132 39.9506
2.87514 10.7976 40.377
2.8403 10.589 41.0899
2.92827 10.7204 40.2847
2.86295 10.7815 42.1713
2.96595 10.9132 41.8275
2.9578 10.5393 40.485
2.88799 10.3298 38.4575
2.78264 10.7972 41.1903
2.8899 10.6305 41.1201
2.89353 10.7789 42.3446
3.00944 10.9493 41.9575
2.96308 10.9575 42.1922
2.99187 11.0106 40.5916
2.81603 10.5958 41.3101
2.89965 10.282 40.3084
2.8644 10.6986 41.2227
2.8681 10.6837 40.4125
2.80079 10.5697 39.0496
2.71994 10.0975 40.7009
2.83467 10.2644 40.7938
2.89434 10.9403 40.9942
2.82939 10.3656 40.1445
2.77848 10.239 41.2177
2.87143 10.6249 39.44
2.74364 10.5011 41.0952
2.81906 10.4171 39.6904
2.74219 10.0976 39.4802
2.75583 10.6135 40.5238
2.7951 10.2019 40.5617
2.84398 10.4808 40.3192
2.78943 10.5396 40.2616
2.83386 10.389 40.6554
2.80863 10.521 40.155
2.78088 10.5214 39.791
2.73579 10.1142 40.2491
2.82793 10.6599 39.82
2.72225 9.81914 39.6569
2.75019 10.1915 39.3317
2.75091 10.1294 39.2187
2.70781 10.1565 40.0115
2.77487 10.5253 40.1523
2.74325 10.1551 39.5589
2.72486 10.1438 39.7878
2.746 10.6758 42.2678
2.91533 10.2519 40.7104
2.78122 10.5623 40.93
2.82588 10.5305 41.5237
2.84566 10.2582 39.8986
2.75825 10.1883 40.4934
2.82578 10.6339 40.5894
2.79295 10.1303 39.572
2.72174 10.108 39.0941
2.73911 10.0987 39.4078
2.72911 10.3438 40.1911
2.71982 10.0824 41.1174
2.83147 10.5622 40.6542
2.77719 10.2928 39.4728
2.66981 9.95368 39.6405
2.68937 10.1011 39.2174
2.66015 9.92218 38.0514
2.56979 9.82426 39.9246
2.74268 10.5522 41.0152
2.76063 10.3804 40.5343
2.72264 10.1766 39.8818
2.69624 10.2911 40.2828
2.70463 10.0302 39.3041
2.67996 10.0413 39.3557
2.6823 10.0453 38.7937
2.65246 10.3824 40.3646
2.70945 10.2159 40.7203
2.74286 10.3604 40.0835
2.71337 10.0862 39.6828
2.68863 9.95249 38.7812
2.63476 10.1398 40.1709
2.69388 10.2666 39.4979
2.6362 10.1644 41.0306
2.75886 9.75793 39.0373
2.6421 9.99706 39.6008
2.6784 10.0874 38.5181
2.58706 9.89676 39.1316
2.66941 10.101 39.9272
2.68651 10.1793 40.5304
2.72722 10.2833 39.7105
2.66279 10.0888 39.6502
2.65049 10.0746 39.063
2.5868 9.7463 39.1835
2.66785 10.2492 39.8068
2.63137 10.3542 40.4401
2.70881 9.99075 38.9637
2.61882 10.0668 39.5754
2.66209 10.5423 39.5302
2.62456 12.9103 71.1172
4.67862 13.2073 39.3703
2.66837 10.6263 39.6423
2.63003 10.208 39.9213
2.63769 10.109 40.6701
2.74536 10.1959 40.3155
2.68468 10.0837 39.4544
2.63427 10.1194 39.9867
2.65958 10.227 40.4262
2.66588 9.97299 39.7394
2.6893 10.1649 40.1271
2.6242 9.80897 38.8629
2.64267 10.3692 41.1807
2.72621 10.4018 40.5854
2.69456 10.2626 39.8347
2.64531 9.86884 39.0222
2.63091 10.3261 40.5572
2.66641 9.99074 40.0232
2.71425 9.90776 39.7611
2.62009 10.116 41.369
2.77557 10.1962 39.8777
2.63672 9.97538 39.6724
2.65985 10.2463 39.794
2.63124 10.4337 41.2347
2.7292 10.1246 39.9961
2.63556 9.78784 40.2674
2.65005 9.87988 39.1604
2.60493 9.90315 37.8844
2.49985 9.98604 39.1476
2.60518 9.83932 38.5678
2.53103 9.95314 39.747
2.60864 10.0729 40.8164
2.68969 9.9799 39.5885
2.59145 9.66367 37.8926
2.49928 9.44409 39.0787
2.59482 9.54711 38.1388
2.53279 9.98454 39.3403
2.59293 10.0017 39.135
2.57945 9.87054 40.0753
2.67606 10.0386 38.9503
2.56981 9.98306 39.6577
2.60937 9.82002 39.3607
2.61499 9.68641 38.1311
2.49701 9.88274 39.776
2.60662 10.0869 39.3972
2.58895 9.65245 40.1079
2.65101 10.1723 41.1426
2.73803 10.0814 39.1223
2.54389 10.2141 39.4957
2.61621 9.73119 39.2303
2.57229 10.0299 40.7575
2.67635 10.432 39.416
2.59623 9.27419 38.1447
2.50755 9.63252 37.8258
2.47038 9.73532 40.7165
2.69326 10.0694 38.3005
2.50869 10.077 40.0656
2.6433 9.94673 40.1472
2.62839 10.0901 39.2936
2.60555 9.53157 40.1286
2.64641 10.2366 40.7656
2.65988 10.1025 39.7894
2.61808 9.84635 39.1191
2.57221 9.76411 38.4349
2.58002 9.64342 38.011
2.50521 9.74599 38.5317
2.50252 9.82812 41.2577
2.69807 9.84246 38.8967
2.56633 10.1848 42.2297
2.72981 10.9222 41.6175
2.73883 10.1837 40.1476
2.6343 10.1917 39.1034
2.57194 9.81444 40.5582
2.67504 10.1252 41.3953
2.70848 10.1625 40.5335
2.64459 10.0054 40.0094
2.63759 10.1724 41.7967
2.76092 10.5711 38.9199
2.53686 9.62433 40.0133
2.6421 10.2732 39.6377
2.61036 9.95255 40.8753
2.66887 10.6334 40.8536
2.67911 9.59292 38.6525
2.52203 9.9053 40.5632
2.6209 10.0229 39.6711
2.63939 10.0856 41.0134
2.69756 10.3838 42.0547
2.73702 10.444 40.5613
2.63756 9.88492 39.063
2.52241 10.1081 39.6718
2.61088 10.14 42.2428
2.74354 10.3071 41.5131
2.70933 10.5787 42.2939
2.76286 10.4457 40.9243
2.67441 10.7697 43.4434
2.83726 11.2586 43.2525
2.83265 13.8256 73.7994
4.7332 0 0