# pn-170911/RbIIR-59-RbIIF-1280-1959.psd
# Power spectrum* (dif=0,1,2) (really just |FT|^2)
# NOTE: only the first half! (symmetric)
# weeks: 1280-1959
# 2337 clock-days, 207 excluded
# PSD: 1441
654.611 0.195574 0.0331511
25685.3 0.476826 0.0734279
117015 3.44487 0.0748349
22094.4 0.830406 0.0673231
74514.3 6.3589 0.0722519
7726.11 0.771534 0.0675788
7713.09 1.56994 0.0708199
3814.37 0.759801 0.068156
4834.49 1.53431 0.0711908
2526.82 0.722916 0.0672272
2388.95 1.05007 0.0735925
1576.64 0.777925 0.0702515
1722.1 0.999391 0.072743
1249.52 0.825203 0.0704845
1087.94 0.901221 0.0747386
958.992 0.825626 0.0663421
955.28 1.06062 0.0703488
700.077 0.850362 0.0690425
796.431 1.02156 0.069933
646.756 0.920378 0.0660724
585.483 0.942145 0.0733357
556.974 0.994594 0.0740749
511.018 1.03224 0.0708496
473.613 1.01295 0.0704031
445.26 1.05751 0.0780279
397.011 1.05876 0.0697855
395.729 1.14035 0.0701386
378.786 1.13033 0.0724903
382.975 1.2685 0.0721717
357.274 1.29569 0.0762304
370.503 1.44584 0.0749515
321.371 1.30171 0.0739901
354.491 1.5151 0.0800196
293.838 1.34549 0.0758224
296.507 1.48808 0.0771335
304.182 1.61656 0.0779802
296.081 1.65955 0.0822466
281.519 1.69494 0.0795658
284.605 1.76962 0.083453
270.881 1.81674 0.0822241
292.838 1.98702 0.0846748
259.923 1.89888 0.0850932
256.056 1.91245 0.0893554
255.456 2.09814 0.0888104
254.539 2.15331 0.0874022
243.129 2.1868 0.0902223
231.616 2.13979 0.0873203
237.835 2.27971 0.0918829
256.189 2.59236 0.0961859
229.738 2.45239 0.0922917
238.429 2.66854 0.0985072
237.816 2.73056 0.107805
234.114 2.75797 0.10991
232.58 2.85831 0.106207
219.875 2.92573 0.116556
218.999 2.92598 0.109926
231.506 3.25693 0.112915
221.804 3.19937 0.118151
227.796 3.46321 0.124013
208.318 3.23018 0.124142
233.086 3.66901 0.132993
215.801 3.56138 0.135711
238.238 4.06465 0.138273
199.399 3.62105 0.13503
201.779 3.78585 0.142441
211.537 4.13699 0.156282
216.561 4.28442 0.157943
222.355 4.5736 0.162503
207.001 4.29011 0.162231
208.995 4.5371 0.169641
196.025 4.39542 0.173627
190.813 4.44649 0.16747
215.121 5.09326 0.188612
189.64 4.54492 0.180967
207.812 5.24006 0.198962
195 5.021 0.200921
194.456 5.14952 0.204603
191.414 5.12769 0.206888
209.706 5.72392 0.239301
191.075 5.50469 0.228964
185.954 5.39846 0.22636
185.299 5.51754 0.23893
194.169 6.04676 0.253558
192.237 6.12862 0.258728
195.711 6.36295 0.273348
178.958 5.9813 0.270862
186.832 6.37857 0.289088
192.528 6.70551 0.311462
185.74 6.60402 0.303466
185.172 6.82065 0.317075
186.357 7.00385 0.327367
189.219 7.30213 0.335254
177.564 6.98176 0.339195
179.029 7.14025 0.343747
167.352 6.80243 0.357356
183.709 7.49844 0.387424
284.094 12.3872 0.595493
175.293 7.52822 0.396512
165.091 7.34122 0.40228
165.354 7.37022 0.39577
163.52 7.47161 0.419678
177.48 8.3316 0.45951
183.369 8.82412 0.487594
176.475 8.52539 0.479733
158.171 7.85011 0.458701
184.43 9.33336 0.551308
161.292 8.24155 0.487321
156.584 8.37302 0.506896
170.941 9.27407 0.563102
170.88 9.54629 0.592683
158.887 8.95126 0.564351
151.545 8.64415 0.571087
147.178 8.44396 0.566566
176.215 10.6368 0.698096
179.385 10.8657 0.719692
158.641 9.8025 0.667846
156.518 9.73266 0.671253
149.935 9.46645 0.6649
150.36 9.7479 0.691131
159.056 10.5164 0.754289
163.715 10.979 0.79702
146.618 9.91579 0.742819
135.78 9.35597 0.696123
160.199 11.3422 0.870902
143.674 10.106 0.789968
147.708 10.7294 0.852133
157.487 11.5961 0.897701
147.259 10.9575 0.873545
148.226 11.4142 0.943533
140.312 10.8349 0.89853
142.203 11.1329 0.931505
151.414 12.2995 1.05533
165.553 13.424 1.15537
149.744 12.2455 1.0443
142.817 11.8541 1.04989
144.134 12.1789 1.09877
135.983 11.6334 1.05511
137.456 11.9062 1.09704
131.465 11.4705 1.07551
131.709 11.8543 1.12332
135.494 12.5576 1.21672
138.481 12.9215 1.26592
131.029 12.1016 1.18525
140.759 13.5436 1.35345
147.205 14.4529 1.46142
132.681 12.7191 1.2904
131.608 13.0129 1.35495
135.332 13.4586 1.43071
129.61 13.3808 1.43885
125.984 12.9448 1.38678
130.849 13.5001 1.45795
128.401 13.4022 1.47985
126.596 13.5469 1.5154
128.193 13.8831 1.57304
131.158 14.2552 1.62751
127.708 14.4073 1.67499
132.133 14.7673 1.69888
117.672 13.5553 1.62587
124.023 14.2187 1.68994
120.252 14.1804 1.73886
119.924 14.3252 1.77879
126.558 15.265 1.90483
118.804 14.2613 1.75278
117.394 14.5321 1.86025
123.76 15.4287 2.00133
117.322 14.7252 1.90542
116.751 15.032 1.98257
121.24 15.7274 2.08473
124.728 16.4819 2.21703
114.827 15.0583 2.05433
116.595 15.6584 2.14999
115.917 15.7249 2.17894
111.682 15.4343 2.146
106.899 14.6458 2.09987
111.271 15.657 2.25373
111.629 15.8284 2.30991
105.108 15.0789 2.1976
107.701 15.7214 2.35851
110.716 16.2209 2.45203
110.266 16.3125 2.49298
112.006 16.5425 2.51582
109.438 16.6766 2.61014
108.515 16.542 2.56868
113.736 17.8059 2.86936
111.688 17.14 2.71178
106.908 17.1208 2.79006
107.641 16.9636 2.73369
101.826 16.2061 2.68954
103.871 16.8694 2.83146
102.494 16.7671 2.83327
100.113 16.5284 2.80977
101.775 17.0989 2.96876
152.884 26.3083 4.50174
104.214 17.4268 3.00592
100.244 17.6924 3.18611
101.534 17.8557 3.23452
98.9925 17.3438 3.106
92.8073 16.4565 2.96078
96.3929 17.7009 3.31289
95.8033 17.5798 3.28088
94.0821 17.3624 3.27047
95.4781 17.9123 3.43189
95.2724 17.9049 3.41903
94.8578 18.1003 3.51877
100.991 19.4369 3.76597
90.3837 17.5686 3.45615
93.0208 18.1754 3.60269
94.1159 18.7481 3.77156
92.9046 18.3269 3.69027
90.9373 18.6676 3.85662
96.8141 19.7164 4.05006
88.2923 18.3455 3.82994
91.1269 18.8616 3.95905
88.443 18.4736 3.9364
86.1887 18.3878 3.9495
84.4689 18.3256 3.99871
96.9229 20.7034 4.45237
83.2236 18.0399 3.95241
86.2307 19.1111 4.27782
85.2646 18.797 4.22369
86.0586 19.26 4.34169
82.3248 18.5012 4.22581
89.1832 20.5928 4.77284
86.2937 19.6506 4.52887
87.7176 20.4879 4.82482
87.2131 19.9 4.57135
80.9205 19.357 4.69371
81.5234 19.5394 4.71264
89.5084 21.5195 5.2181
81.9802 19.5224 4.68512
77.6597 18.9624 4.64037
78.6245 19.2237 4.76524
80.4647 19.8234 4.95198
80.7545 20.5158 5.25532
78.8547 19.9571 5.07665
77.7041 19.7835 5.10589
79.8034 20.3738 5.20639
71.9146 18.649 4.90405
73.1883 19.2405 5.13285
77.9297 20.5884 5.48255
84.27 21.9969 5.77059
74.6325 20.008 5.40716
74.1272 19.8985 5.42597
71.5487 19.5092 5.39687
76.1311 20.8343 5.75088
77.4822 21.3253 5.85849
73.2082 20.5599 5.78929
74.1693 20.6328 5.80666
74.1011 21.0612 6.00969
72.2387 20.523 5.89672
73.8846 21.1407 6.08417
66.8668 19.7001 5.84903
74.45 21.6109 6.33554
73.2318 21.4083 6.32369
70.1598 20.7384 6.18335
70.8892 21.1815 6.42095
69.885 21.2521 6.5034
73.2609 22.4563 6.84705
71.886 21.8335 6.66685
68.9837 21.3569 6.68631
68.4929 21.1593 6.54125
67.2835 20.7787 6.53286
66.95 21.2198 6.80688
67.6052 21.4046 6.89811
69.6383 22.222 7.1036
64.4194 20.5018 6.63986
63.1062 20.4238 6.65468
64.1387 20.9746 6.87424
65.3217 21.6773 7.26775
65.3906 21.3688 7.11913
65.5292 21.9 7.35767
64.2032 21.7455 7.3546
60.9921 20.4039 6.93958
60.234 20.7583 7.2652
64.1251 21.8769 7.50598
60.1929 20.9618 7.40734
68.5421 23.6904 8.20166
61.4272 21.3472 7.54907
64.6801 22.4721 7.89304
59.7517 21.3123 7.65039
61.7441 21.9979 7.89788
60.4274 22.0941 8.05129
61.1623 21.9507 8.04533
61.0052 22.263 8.19633
59.5797 21.9837 8.19275
58.4238 21.4693 8.04083
57.389 21.4141 8.15064
60.6544 22.9961 8.90029
94.9082 34.9707 12.8636
57.1775 21.7908 8.43004
56.8176 21.4303 8.31295
54.4017 21.079 8.28309
55.1478 21.2242 8.38456
57.8243 22.3711 8.73631
55.6012 21.788 8.60529
54.9726 21.8069 8.81316
55.2671 21.9053 8.78706
55.3488 21.9508 8.85193
56.8293 22.8921 9.28382
54.6504 22.259 9.2091
55.3333 22.7001 9.38129
55.1839 22.7293 9.51958
54.7325 22.1628 9.15127
52.6686 21.8006 9.08009
52.0517 21.8491 9.30762
52.4368 22.2538 9.48082
53.7947 23.1621 9.97589
51.129 21.8839 9.43668
50.9494 21.9859 9.59975
52.4537 22.5529 9.72297
50.1484 22.0078 9.73732
49.4947 21.6857 9.68541
53.1744 23.3514 10.306
50.2329 22.2568 9.96759
48.3852 21.686 9.87234
50.998 22.871 10.3136
48.3075 21.8665 9.95248
49.1654 22.3177 10.1934
48.817 22.3622 10.4383
48.6538 22.3391 10.3797
48.2668 22.0719 10.2057
50.6592 23.6518 11.1182
47.1372 22.035 10.3918
47.7698 22.3698 10.5944
47.4753 22.6701 10.8581
47.043 22.6171 10.9976
47.1784 22.519 10.8227
46.8037 22.6574 11.0455
47.882 23.2334 11.3658
47.9239 23.4892 11.5591
45.4817 22.3117 11.0879
46.2793 22.7512 11.2992
45.5006 22.5723 11.3104
45.5008 22.845 11.5741
44.0497 22.1842 11.3125
43.122 21.902 11.2309
46.1787 23.37 11.8806
44.8781 22.9751 11.8214
43.1975 22.247 11.57
42.8229 22.2618 11.7124
43.8402 22.5489 11.7197
43.4576 23.009 12.2657
42.8459 22.5569 12.0282
42.4222 22.4183 11.9644
43.695 23.079 12.3616
42.6248 22.8284 12.2629
42.0485 22.6355 12.2729
43.059 23.372 12.7166
42.766 23.2687 12.7072
41.9464 22.819 12.5568
41.2173 22.7129 12.5927
40.2379 22.1701 12.3238
40.425 22.6152 12.8241
43.1275 24.0871 13.466
40.4819 22.9306 13.0155
41.7379 23.8671 13.7123
40.5506 22.8816 13.0392
39.2173 22.5795 13.161
38.1606 21.7155 12.5335
38.6036 22.4767 13.1236
39.0375 22.444 13.128
38.7039 22.3033 13.0302
37.8908 22.4788 13.4113
39.9624 23.3949 13.891
37.3004 21.9094 13.0957
37.9984 22.522 13.5819
37.2946 22.0381 13.2261
39.1006 23.5039 14.1889
38.9519 23.7167 14.5241
37.243 22.6217 14.0021
36.3185 22.1176 13.6627
36.8842 22.6557 14.0694
36.1642 22.2279 13.9036
37.9433 23.17 14.3116
36.5206 22.8074 14.282
37.6401 23.6662 14.9871
36.7205 23.1594 14.7033
36.1737 23.0476 14.7538
34.1722 21.9037 14.3235
36.0468 22.7039 14.5514
36.5055 23.6969 15.4969
35.0601 22.5046 14.7285
35.0306 22.672 14.9473
36.258 23.6683 16.1267
56.8189 36.3975 22.4686
35.5546 23.7161 16.0536
34.2894 23.2509 15.8983
34.4551 22.6155 15.0334
34.0231 22.605 15.155
34.2685 23.1623 15.7738
32.7418 21.7558 14.7977
34.0269 23.2809 16.0769
32.9435 22.03 14.9976
33.3039 22.403 15.3087
33.6031 23.5698 16.5892
33.7057 23.2216 16.1309
32.7142 22.373 15.6346
32.0677 22.4031 15.8614
33.3098 23.2367 16.3536
33.1837 23.4496 16.7621
33.5337 23.7777 16.922
31.1833 22.226 16.0882
31.9763 22.595 16.2924
32.4895 23.3203 16.881
31.9047 22.9224 16.5954
31.7981 23.0327 16.9719
32.4929 23.4666 17.1663
30.6459 22.2919 16.509
32.1882 23.5691 17.4202
31.1565 23.0482 17.1758
31.6166 23.3526 17.4496
31.0499 22.9953 17.1448
30.2387 22.7383 17.1947
28.8319 21.5426 16.4543
29.8704 22.5167 17.2359
30.8712 23.1023 17.5485
30.4118 22.8443 17.3797
32.277 24.9143 19.2089
30.4388 23.242 17.9487
29.4875 22.6419 17.5884
29.6574 23.4456 18.5413
29.4855 22.8829 18.2411
30.4827 23.6346 18.5791
29.4304 22.759 18.0818
29.974 23.4976 18.5686
28.7474 22.859 18.4687
28.4984 22.4898 18.1519
29.7917 23.6132 19.0184
28.0217 22.1497 17.9121
29.147 23.4461 19.0058
27.6765 22.6592 18.6974
28.3009 22.8816 18.847
28.6834 23.2732 19.1914
28.193 22.7835 18.8472
28.8878 23.7614 19.5517
27.4423 22.5373 18.869
27.9482 23.1997 19.4185
28.2333 23.5756 20.0006
27.905 23.0715 19.4025
27.7611 22.65 18.9
27.1986 23.3752 20.0854
26.479 22.2566 19.028
26.285 22.501 19.5448
27.4066 23.2397 19.8869
26.567 22.9541 19.8753
26.71 22.9006 19.8871
26.4544 22.8817 19.9635
25.9252 22.6504 20.0102
25.9743 22.4275 19.7805
26.1614 22.8664 20.4022
26.5004 22.9204 20.3832
26.6308 23.448 20.8934
26.6553 23.0729 20.428
26.8275 24.1613 21.8078
25.9601 22.6322 20.291
25.865 23.129 21.0164
25.5941 22.9178 20.96
26.3882 23.8481 21.6624
25.422 23.1435 21.3935
25.306 23.1692 21.6807
24.7679 22.1644 20.4159
23.9579 21.9256 20.2792
24.735 22.7065 21.0413
24.5259 22.43 20.9041
23.933 22.5877 21.4254
23.8583 22.3808 21.332
24.1879 22.473 21.3266
24.5801 23.1651 22.0868
24.8397 22.9958 21.7137
24.2829 23.0948 22.1105
24.2371 22.7219 21.8226
23.7382 22.7664 22.1313
23.7457 22.6072 21.9189
24.3144 23.333 22.6132
23.1445 21.9417 21.5068
23.4018 22.666 22.1634
23.7784 23.3784 23.1258
23.8323 23.1156 23.009
23.143 22.9876 23.2176
23.0007 22.4684 24.0265
36.9873 35.389 32.1867
23.2647 23.1015 23.351
22.3167 22.5947 23.2083
22.64 22.4753 22.8617
22.3483 21.9448 21.9484
21.4865 21.8179 22.596
22.7633 22.8375 23.1872
22.5082 22.8548 23.5882
22.6045 23.0537 23.7888
22.1973 22.513 23.3276
21.9048 22.315 23.2844
22.4686 22.9752 23.8022
21.6358 22.2131 23.3754
22.0059 22.4691 23.1157
21.9399 23.0051 23.9719
21.5888 22.8977 24.5298
21.4467 22.0069 23.1474
21.8738 23.1083 24.5028
20.7683 21.8782 23.4151
21.5508 22.5808 23.8534
20.793 22.5142 24.3585
20.2857 21.5054 23.3896
21.3739 22.7413 24.5
20.8208 21.9696 23.5697
20.5677 22.238 24.228
20.3412 22.1109 24.3411
20.8987 22.5622 24.8175
20.3858 21.822 23.7901
19.3768 21.3886 23.9565
21.1774 22.8373 24.9394
19.6831 21.7668 24.0938
19.7884 22.2861 25.3906
20.1214 22.14 24.754
20.5267 22.5873 25.1831
19.5255 21.968 25.2574
19.8216 21.9496 24.7425
20.2821 22.8292 26.0896
19.8052 22.1664 25.4211
19.7241 22.2287 25.2732
19.8648 22.8021 26.3541
19.085 21.89 25.3684
19.4024 22.1315 25.7198
19.1239 21.6537 25.0657
19.2245 22.0899 25.5546
18.7644 21.8173 25.7222
19.317 22.3261 26.3183
19.1787 21.9677 25.8141
19.6711 22.8234 26.8796
18.9488 22.3245 26.8311
19.1766 22.0184 26.0142
19.1818 22.745 27.4006
19.1707 22.3371 26.5381
19.0338 22.4069 26.7284
17.7938 21.1782 25.8313
18.591 22.3447 27.347
18.346 21.5073 25.8456
18.1071 21.8275 26.9392
18.726 22.1197 26.534
18.1605 22.1759 27.3594
17.8327 21.771 27.2705
18.8425 22.6704 27.788
17.9792 21.8705 27.1325
17.7989 21.2757 26.1507
17.404 21.6607 27.5002
18.5172 22.8403 28.6757
18.3099 22.4201 27.9399
18.5525 22.8762 28.4562
18.2174 22.3478 27.8101
17.4955 22.0407 27.6187
17.602 22.4258 28.7943
17.6596 22.4842 29.2661
18.0452 22.64 28.9385
17.3473 21.6348 27.6734
17.9475 22.6795 28.964
17.5096 22.1642 28.4073
16.0828 20.3747 26.8321
16.7042 20.9923 26.9554
17.4839 22.7772 29.4443
17.0734 21.9347 28.5114
16.3031 21.2868 28.3803
16.6584 21.1057 27.5321
17.3081 22.5643 29.5116
16.415 21.4578 28.6826
17.1091 22.605 30.0176
17.2081 22.3743 29.9507
17.0967 22.4843 29.7962
17.1308 22.576 30.5816
17.1909 22.4664 30.045
16.8904 22.1467 29.5457
16.4208 21.5306 28.6817
16.1865 21.7568 30.2473
16.672 22.1896 30.2689
17.082 22.0766 29.734
15.8534 21.1511 28.7957
16.5979 22.4312 31.2536
15.7724 22.6532 35.6995
26.4505 33.4924 40.5238
16.175 22.7905 32.4265
16.7586 22.0691 29.8949
15.1617 21.0981 29.8936
15.4968 21.0622 29.9512
16.0542 21.8396 30.4941
16.1477 22.2994 31.0711
16.2199 22.3321 30.615
14.8419 20.8601 30.075
15.9829 22.2538 31.2856
15.244 21.6214 31.0916
15.3552 21.4899 30.5854
15.2602 21.5476 31.239
15.4517 21.6934 30.6106
14.8122 21.3352 31.1563
14.9698 21.0499 30.5042
15.2461 21.6546 30.9845
14.99 21.7907 32.0489
14.9911 21.1184 30.6104
14.549 20.8631 30.3214
15.0706 21.97 32.187
14.8785 21.096 30.8161
14.5918 21.2835 31.323
14.3996 21.1094 31.527
14.6728 21.4081 31.8153
14.3367 20.8775 31.3588
14.8751 21.6559 32.0607
14.8658 21.9374 32.3949
14.3523 20.9271 31.316
14.0452 21.1242 32.3336
14.4697 21.0132 31.7701
14.0365 20.5962 30.9206
14.52 21.5433 32.4108
13.885 20.7894 31.6758
13.8624 20.7112 31.5202
14.1574 21.1828 32.228
13.6162 20.334 31.1444
13.8264 21.0042 32.4489
13.6976 20.4519 31.6916
13.8579 20.8958 31.8261
13.3409 20.6505 32.5011
13.5663 20.688 32.0717
13.6093 21.0305 32.8712
13.5237 20.7546 32.5479
13.293 20.268 31.6827
13.0499 19.9777 31.309
12.9046 20.2162 32.5745
13.5801 20.9568 33.737
14.0129 21.5931 33.9495
13.8942 21.1893 32.5245
12.6018 19.9196 31.8322
13.0358 20.459 32.7362
13.3645 21.1966 33.8034
13.4431 21.2053 33.9989
13.1564 20.7088 33.1616
12.9213 20.4656 32.9792
12.7651 20.316 32.7654
12.8122 20.4722 33.3875
13.0197 20.8132 33.8702
12.7355 20.3256 32.9724
12.5648 20.4149 34.1616
12.8938 20.5503 33.8162
13.0985 20.8958 33.5774
12.3545 19.8725 32.4709
12.2934 20.33 34.1468
13.1355 21.1659 34.3612
12.3313 20.3287 33.7673
12.2159 20.0179 33.6525
12.3576 19.8524 32.8882
12.0865 19.7648 32.9208
11.9643 19.6601 33.0505
12.3652 20.5059 34.7804
12.1495 19.7095 32.9818
12.0303 20.2242 34.4534
12.1513 20.1302 34.277
12.4164 20.2423 33.5732
11.7717 20.0065 34.525
11.8196 19.3533 32.8088
11.7707 19.9228 34.3332
11.71 19.4783 33.3039
11.8108 19.7775 33.7659
11.8566 20.2502 35.4205
12.2123 20.4412 34.3424
11.182 18.8316 33.1316
11.7986 20.1652 34.6147
11.4283 19.8783 35.32
11.8823 20.2815 34.89
11.1127 18.8449 33.642
11.5762 19.7926 34.6853
11.4036 19.3541 33.9269
11.403 20.0753 35.4248
11.2912 19.7221 34.9037
11.1964 19.4371 34.5532
11.1607 19.5919 35.0885
11.2141 19.4935 35.1773
10.9309 19.9336 41.252
17.8505 29.8554 45.6976
11.3509 20.1428 35.5812
10.5368 18.7021 33.7851
10.9754 19.6157 35.432
11.0114 19.5054 34.4188
10.3379 18.8815 34.8846
10.8518 19.2907 34.8974
10.4105 18.905 35.7053
11.494 20.1775 36.8179
11.1938 19.6493 35.8148
11.0187 19.7952 36.7663
11.0186 19.1931 34.5943
10.7326 18.9458 34.4723
11.0572 20.3674 37.158
10.5901 19.0907 35.5199
10.5741 18.9385 34.3875
10.2284 18.9092 35.5796
10.2473 18.6761 35.147
10.4636 19.1992 35.5744
10.0957 18.33 34.8539
10.197 18.4995 34.8429
10.7456 19.8738 36.3163
9.99158 18.7339 35.5575
10.0433 18.7819 36.2052
10.6441 19.1865 34.8913
9.60378 18.3906 35.4342
9.8847 18.0316 34.107
10.0269 19.5033 37.7076
10.0443 18.213 34.5588
9.63421 18.0455 34.8912
9.67589 18.3523 35.8286
10.1576 19.1462 36.8942
10.1835 18.7802 35.4288
9.91057 18.7737 35.7917
9.63564 18.9082 37.6209
10.2283 19.2027 36.3098
9.33341 17.8543 35.2766
9.87366 18.5619 35.9446
9.52749 17.6866 34.3699
9.58541 18.4117 35.7039
9.34321 17.954 35.3027
9.26591 17.8318 35.3052
9.47836 18.3508 36.1249
9.42551 18.1218 35.7399
9.3853 18.0697 35.82
9.25758 18.1166 36.0809
9.11347 17.5888 35.0657
9.07424 18.2553 39.0402
10.9608 20.4998 37.4016
8.78332 17.7179 35.9776
9.03724 17.7097 35.7543
9.05952 17.4263 35.2313
9.33606 18.6132 37.0365
9.09708 18.2663 38.1244
9.29634 17.7884 35.7087
9.21902 18.1666 36.278
9.09987 18.3074 37.5989
9.27693 18.055 36.3164
8.84321 17.9504 37.4247
9.13861 18.0754 36.7375
8.80655 17.5462 36.3047
9.17409 18.487 37.9021
9.10808 18.2447 37.0726
8.53985 17.0156 35.5465
8.54404 17.0728 35.9688
8.9832 18.205 37.2556
8.76946 17.8879 37.8408
8.98631 18.0519 37.3105
9.14982 18.7164 37.7972
8.23264 16.7882 35.6529
8.4483 17.1585 35.8869
8.28659 17.2379 37.3096
9.02351 18.0407 36.4445
8.43929 17.3544 36.3172
8.23543 17.0197 35.9032
8.2634 17.2255 36.5257
8.41774 17.521 36.8039
8.06953 16.8354 37.0654
8.85739 18.5158 38.5619
8.45569 17.4246 37.1636
8.39538 17.6475 37.6671
8.25207 16.7303 35.178
8.12748 17.4434 37.4329
8.15433 17.1209 37.0109
8.23983 17.4962 38.1866
8.41552 17.4439 37.3822
8.2822 17.5574 38.4667
8.61197 18.1489 38.5791
8.18905 17.2118 37.1536
8.07884 17.3303 37.4033
7.78547 16.8803 37.9012
8.10201 16.8405 36.4385
8.02635 17.2452 37.7009
8.09995 17.7439 39.2564
7.79415 16.7437 37.5222
7.7919 17.8781 48.1472
12.986 25.9662 46.8139
7.8742 17.0847 37.8554
7.83637 16.9631 37.2534
7.68923 16.8226 37.55
7.75781 16.8972 37.7431
7.82534 16.9543 37.0763
7.4142 16.5027 37.1862
7.64509 16.6108 37.5613
7.37949 16.1313 37.1421
7.77304 16.8948 38.0158
7.68148 16.5455 37.0953
7.59167 16.521 37.4632
7.6831 16.6818 37.2186
7.44493 16.2678 36.5535
7.42854 16.5678 37.9239
7.55795 16.7047 37.9794
7.33518 16.1532 37.251
7.62093 16.6078 37.3491
7.4674 16.5616 37.401
7.39892 16.3364 37.3495
7.24299 16.035 36.2824
7.22835 16.2691 37.1914
7.21604 16.5476 38.1697
7.18319 15.5503 35.7352
7.19667 16.6687 38.2858
7.14837 16.0255 38.2309
7.24962 16.0183 37.1804
7.18157 16.2109 38.1838
7.50789 16.7669 38.4852
7.30084 16.0945 37.2119
7.28481 16.7192 37.9603
6.99994 16.4496 39.5503
7.13276 16.0157 37.2434
7.02418 16.1367 38.2022
7.05788 16.0327 37.6301
6.93832 15.8262 37.3843
6.84443 15.5223 36.8351
7.03765 16.2465 38.8409
7.05337 15.9446 37.6391
7.044 16.2188 37.3389
6.61828 15.5692 38.2015
6.94105 16.0071 37.8804
6.65413 15.3783 36.8987
6.80862 15.8474 37.5505
6.81912 16.0106 38.3477
6.78716 15.974 38.3728
6.6607 15.4471 37.5767
6.81228 15.8342 38.271
6.76778 15.8579 38.4352
6.56921 15.3181 37.2265
6.64624 15.654 37.38
6.64134 15.8387 38.6704
6.70404 15.6533 38.0388
6.6457 15.5738 37.7644
6.50088 15.5463 38.0426
6.64759 15.6855 38.0312
6.50771 15.7524 39.1676
6.70687 15.8061 38.4349
6.53017 15.1736 36.6712
6.37339 15.5628 37.7623
6.24388 14.8055 36.7278
6.27734 14.835 36.4702
6.24588 15.0845 37.057
6.21935 15.2722 38.1133
6.24206 15.0477 37.742
6.30765 15.1919 37.6951
6.35843 15.3536 38.8721
6.48061 15.4389 38.1808
6.33369 15.159 37.2106
6.04653 14.6475 36.9286
6.24212 15.5451 38.8537
6.23228 15.1614 37.7924
5.97419 14.3562 36.3983
6.03225 14.7226 37.3463
6.06759 15.0316 38.4305
6.47664 15.8466 39.2129
6.1977 15.0655 37.4803
5.84458 14.6742 38.1544
6.15699 15.0058 37.8471
6.04548 15.106 39.02
6.05297 14.8682 38.8251
6.0976 14.7341 37.7496
6.2115 15.4579 38.7912
5.93425 14.6306 37.5
5.91546 14.8685 37.952
5.87927 14.5781 38.2254
6.22435 15.2773 38.6969
5.98018 14.9903 39.0503
6.12807 15.3418 37.6867
5.66322 14.5968 38.9329
6.06469 15.0545 39.3904
6.08567 15.3216 39.7157
5.94589 14.7492 38.4495
5.92845 15.3119 40.9483
6.1107 15.4093 41.4213
6.16228 16.3931 52.303
9.60465 23.1107 49.5863
6.31849 16.0082 41.4204
6.00036 15.0184 39.876
6.06927 15.3549 39.3747
5.80491 15.0476 39.7437
5.87224 15.0947 39.7245
5.77954 14.4344 38.1556
5.84388 15.1906 39.9386
5.81474 15.0023 39.6571
5.72342 14.8323 39.4723
5.70192 14.346 37.8708
5.58119 14.3897 38.2818
5.4728 13.9077 36.7366
5.47886 14.4427 38.4873
5.51644 14.3117 38.1282
5.49539 14.3906 38.7259
5.45499 13.7231 37.3231
5.5163 14.0642 37.7634
5.69784 14.8209 38.5666
5.41796 14.1265 37.9209
5.38158 13.918 36.8177
5.23116 14.1772 38.839
5.4202 14.2127 39.0337
5.62258 14.6142 38.7606
5.48168 14.5308 38.6648
5.21521 13.4781 36.9644
5.19875 13.7516 37.1665
5.27971 14.1938 38.8113
5.3348 13.996 37.9685
5.20364 13.8176 37.7763
5.13947 13.5499 37.6288
5.29773 14.3154 39.0523
5.18296 13.6356 38.2802
5.32694 13.9541 38.0556
5.22374 13.7506 36.8883
5.02393 14.1084 40.0999
5.24539 13.5895 37.5391
5.25911 13.9844 37.9111
5.03407 13.3737 37.0304
5.09896 13.7602 38.2558
5.23215 14.0954 38.8032
5.07298 13.6196 38.2219
5.02916 13.4121 37.532
5.09766 14.1419 39.617
5.12616 13.5557 38.6054
5.06982 13.4828 38.7899
5.27514 14.1476 38.5528
4.99941 13.5629 37.9631
4.94815 13.4754 37.4827
4.86604 13.3789 38.442
5.0041 13.6259 38.2137
5.0111 13.8724 38.8678
4.71662 12.8108 39.2802
5.59827 15.0438 40.0073
4.90505 13.7521 39.1038
4.95671 13.0389 36.8278
4.79933 13.0306 37.1845
4.87477 13.366 37.5978
4.77241 13.2125 37.2691
4.81438 13.6457 38.9086
4.79848 13.1684 37.5656
4.80623 13.6681 40.2475
4.99586 13.4463 38.7158
4.99665 13.9825 39.8182
4.91767 13.4252 38.9931
4.89621 13.2892 37.2455
4.64723 13.1903 38.5692
4.84964 13.4119 38.7361
4.77097 12.8305 36.4954
4.612 13.2265 39.0108
4.90763 13.2431 37.2663
4.72522 13.7385 39.6713
4.68352 12.9953 38.0693
4.71949 13.1503 38.1549
4.72188 13.3059 38.7875
4.7427 13.3103 38.445
4.54932 12.3015 36.7059
4.65161 13.0777 38.2217
4.70706 13.5713 38.7485
4.66672 13.1887 38.0623
4.5375 12.9014 37.8572
4.42282 12.284 36.4581
4.5891 13.4317 39.1365
4.61723 13.0964 38.7966
4.60392 13.2575 38.4823
4.40455 12.4747 37.0556
4.43047 12.9658 39.4714
4.69438 13.0048 37.1036
4.39431 13.0568 39.8102
4.63561 12.9969 38.7093
4.59095 13.3931 39.2698
4.54269 12.5789 37.6283
4.40201 12.7546 37.3126
4.33436 12.8102 38.9377
4.45479 12.7227 38.5168
4.43202 14.205 55.3991
7.31809 18.7772 43.3624
4.56699 13.4123 38.7878
4.35533 13.1638 40.3271
4.59627 13.0286 38.879
4.44988 12.53 37.5472
4.31967 12.6785 38.8522
4.46767 12.434 36.9287
4.24936 12.5016 37.5976
4.39107 12.5707 38.2701
4.40804 13.0015 39.0089
4.34644 12.3424 37.68
4.37368 13.0348 39.5631
4.43541 12.8016 38.7923
4.25039 12.2647 37.9844
4.41116 12.4332 36.8408
4.08017 12.0419 37.3721
4.45117 13.0473 38.3358
4.1572 12.5185 38.4095
4.20195 12.1865 38.1581
4.28319 12.6629 38.4897
4.16136 12.2521 37.675
4.15457 12.1955 37.508
4.18575 12.3132 37.4766
4.1223 12.1962 38.5472
4.29371 12.5676 38.2431
4.27927 12.8646 38.8266
4.11065 11.9312 38.7405
4.3914 12.802 38.1007
4.09121 12.3129 38.9929
4.24765 12.5641 37.7886
4.08405 12.4614 39.8113
4.29201 12.3179 37.4763
4.10969 12.3227 38.0523
4.07934 12.6237 38.5528
3.99968 11.8695 37.4048
4.01212 12.1371 38.1263
4.10016 12.0488 37.1153
3.93106 12.0021 37.7871
3.98029 11.789 37.858
4.03499 12.4876 40.5299
4.30033 12.2366 37.3894
3.99915 12.2394 38.2765
3.93361 11.8414 37.7299
3.96598 11.9801 37.0265
3.91819 12.1245 37.9903
3.89092 11.9895 38.3543
3.96524 11.626 36.1517
3.8413 11.7475 37.6223
3.9481 12.0736 38.2817
3.99678 12.1352 38.2115
3.99962 12.3696 39.415
4.07357 12.2652 39.4137
4.04459 11.9908 37.7523
3.9838 12.0436 37.9208
3.92171 11.861 37.743
3.71788 11.4281 37.3104
3.86605 11.695 36.7026
3.75891 11.7587 38.6153
3.99142 12.1346 38.8915
3.94568 11.9063 37.1424
3.74517 11.6798 37.6179
3.79841 11.7588 37.758
3.86421 12.1133 38.9213
3.88194 11.7883 38.181
3.89994 12.0369 38.3489
3.72711 11.4923 37.701
3.80946 11.7929 37.668
3.76497 11.8706 38.3701
3.78363 11.6817 37.8568
3.7496 11.9574 39.1222
3.81551 11.3327 36.5135
3.75901 12.0978 39.1188
3.75946 11.6138 37.6283
3.7051 11.679 37.4909
3.62824 11.7523 40.2924
3.96734 12.1378 38.2161
3.69366 11.8865 38.3309
3.71052 11.5736 38.1105
3.70489 11.376 37.7661
3.76371 11.7717 38.3373
3.66934 11.3558 37.3472
3.6129 11.6695 38.7209
3.75643 11.9418 39.1483
3.75532 11.9808 39.5514
3.81063 11.9084 39.0112
3.67308 11.5573 38.0775
3.70797 11.6408 37.3319
3.49223 11.2233 39.1456
3.70419 11.377 37.7268
3.61778 11.4311 37.979
3.59787 11.3286 37.7032
3.6227 11.3194 36.8331
3.48407 11.2501 37.2555
3.56844 11.6416 38.9503
3.58774 11.3842 37.9149
3.59321 13.3118 59.5527
5.99879 16.6055 40.2246
3.51274 11.989 39.245
3.51412 11.4919 38.796
3.54201 11.3011 39.3331
3.74084 11.5881 37.3998
3.50127 11.5085 38.8747
3.58641 11.1488 37.1262
3.48381 11.4753 38.2863
3.57269 11.4708 38.0648
3.52477 11.2118 37.5397
3.50538 11.4568 37.8441
3.40702 11.2514 38.9929
3.59051 11.6052 39.2719
3.61883 11.2613 37.8115
3.44818 11.2582 38.4157
3.51314 11.0965 37.9414
3.52945 11.6569 39.5532
3.61349 11.5407 38.2357
3.52803 11.3071 37.1203
3.34769 10.8408 37.4974
3.44178 11.3721 39.1906
3.5568 11.5791 39.1541
3.49549 11.377 38.7586
3.41985 10.8692 37.0464
3.40294 11.497 40.5026
3.72138 11.4906 38.0319
3.45805 11.1639 37.711
3.40202 10.956 37.7106
3.42053 11.142 37.7184
3.42678 11.2205 38.9438
3.48232 11.1034 37.439
3.38037 11.2762 38.2965
3.41774 11.3243 38.594
3.34839 10.7652 37.5538
3.35661 10.8999 37.945
3.46779 11.3516 38.5757
3.41452 11.242 38.4081
3.33747 11.1411 37.5184
3.29928 10.9829 38.095
3.36711 10.9531 38.2895
3.36357 10.8362 37.4714
3.30036 11.2132 37.9911
3.2343 10.6105 37.8221
3.35219 11.1414 38.8248
3.33985 10.7324 36.6251
3.22229 10.9217 37.7689
3.3706 11.1862 38.6198
3.36735 11.2299 39.0959
3.38409 11.2897 39.1824
3.38584 10.7939 37.4427
3.32981 11.0354 36.8368
3.11012 10.6788 39.1097
3.34307 10.8168 38.0385
3.29564 10.9622 38.1319
3.25961 10.7269 37.3045
3.26728 11.0572 38.0033
3.20403 10.9342 38.6945
3.30771 11.0785 38.2528
3.22638 10.7414 38.0931
3.26911 10.7247 38.0528
3.27633 10.9632 38.6728
3.35443 10.9819 37.8809
3.15564 10.4528 37.1838
3.28282 11.1307 38.7358
3.25345 10.8675 38.376
3.27838 10.8885 38.6793
3.23378 10.9226 38.818
3.27415 10.9865 39.2162
3.31496 10.9638 37.8484
3.14028 10.755 37.8618
3.14628 10.5899 38.2841
3.27685 11.1765 39.2729
3.2411 11.0241 39.0214
3.22898 10.8573 38.6548
3.18806 10.1419 36.0907
3.09138 10.8356 38.6558
3.1991 10.9789 38.8886
3.16737 10.9374 39.0176
3.20568 10.9545 38.7516
3.17539 10.4141 37.8828
3.14818 10.7206 37.9814
3.13757 11.0049 39.1726
3.21227 10.9029 38.4724
3.12426 10.7146 38.6576
3.16601 10.7465 38.2243
3.09164 10.6637 39.2914
3.2213 10.8402 38.7708
3.2088 11.456 40.7798
3.27311 10.7157 38.2299
3.17225 10.9916 39.0781
3.20089 10.6769 38.7405
3.21692 11.3202 40.0513
3.2379 10.881 39.8139
3.18379 11.0216 41.2945
3.47567 12.1752 43.622
3.41431 13.1157 62.2111
5.26643 15.3239 42.0329
3.24816 11.6462 41.9419
3.39638 11.0547 38.4495
3.159 11.0063 38.7803
3.15766 10.7649 37.9931
3.00655 10.8138 40.0649
3.28355 11.0082 38.4226
3.03631 10.597 39.0948
3.15281 10.8423 39.841
3.19378 10.7421 38.1578
3.05852 10.7037 39.246
3.1053 10.8157 38.9919
3.0983 10.4582 38.4792
3.10964 10.8329 38.9144
3.07381 10.957 40.4674
3.13451 10.7253 39.3391
3.10983 10.5172 38.2982
3.00918 10.4548 37.5093
2.94042 10.0187 36.4971
2.88637 10.4543 38.0151
2.9513 10.3213 38.009
3.02339 10.6784 38.2278
2.88368 10.1192 37.1222
2.89104 10.3389 37.5784
2.88368 10.0212 38.232
2.96292 10.2006 38.152
2.99694 10.6878 38.3285
2.9794 10.4218 37.6427
2.95358 10.2788 37.8921
2.92367 10.3053 37.6167
2.94206 10.307 37.1603
2.87102 10.2991 39.4591
3.01388 10.416 37.3433
2.92621 10.4057 38.28
2.9407 10.0301 36.4109
2.81799 10.0275 38.9411
3.03794 10.5805 38.0959
2.89622 10.2797 37.3388
2.88191 10.3704 37.8783
2.87872 10.0832 37.4171
2.88644 10.03 36.176
2.73098 9.67393 38.3986
2.96663 10.5888 38.9082
2.96076 10.176 37.3234
2.85885 10.3515 37.7597
2.82913 10.1322 38.0683
2.89924 10.0621 36.5313
2.74736 10.0097 38.4958
2.8915 10.1336 38.4072
2.92019 10.1771 37.3228
2.81241 10.1509 38.0195
2.94477 10.6314 39.0557
2.97833 10.3407 37.9636
2.83461 10.2363 38.5847
2.86647 9.82068 37.1391
2.84089 10.1321 37.51
2.79575 9.87808 38.1157
2.87923 10.2776 38.5525
2.87225 10.2157 36.7942
2.77303 9.64547 36.0017
2.69327 9.44243 37.2021
2.84678 9.72154 35.9814
2.73533 9.93504 36.3392
2.70171 9.72232 37.5095
2.84307 10.1266 37.806
2.85728 10.4189 39.6954
2.92412 10.4227 38.1822
2.80252 10.0819 37.4671
2.73948 9.68144 36.5637
2.7386 9.83124 37.3959
2.77107 9.75945 37.3337
2.82258 9.92857 37.2414
2.75243 10.3646 38.5014
2.82391 9.88521 37.643
2.78552 10.2542 37.6733
2.74688 9.59845 35.9279
2.62551 9.57083 36.691
2.74817 10.0074 38.2967
2.83505 10.1922 37.9119
2.76767 9.99263 37.8334
2.75494 10.046 39.0024
2.85767 10.1746 38.5459
2.80518 9.56929 35.8201
2.64763 9.81473 37.2165
2.68093 9.84624 37.1094
2.69649 9.73477 37.1869
2.68279 9.7087 36.1941
2.61563 9.29649 35.5768
2.63792 9.85916 36.5136
2.60715 9.44332 37.3806
2.72796 9.98245 38.1826
2.71234 9.58304 36.9066
2.6897 9.92536 37.2957
2.72881 10.1523 37.0041
2.63835 9.83857 38.1149
2.78839 12.2452 62.8605
4.50387 13.5488 38.657
2.72866 10.1342 38.7888
2.80597 10.3107 38.7474
2.75671 9.92739 36.5354
2.64184 9.68726 36.9407
2.69459 10.0897 38.2454
2.72336 9.72206 38.4048
2.75462 9.81929 37.0894
2.67133 9.92189 37.0933
2.63693 9.50458 36.5154
2.61493 9.71797 38.2665
2.75424 9.77189 36.8601
2.61206 9.6699 37.9277
2.67879 9.29291 35.649
2.59195 9.39941 36.5183
2.64874 9.50965 37.0269
2.69007 9.91888 37.0886
2.61791 9.4479 36.0578
2.57932 9.52209 36.7536
2.60712 9.82929 37.7008
2.63603 9.22243 36.0689
2.59369 9.30625 35.3853
2.54954 9.74241 38.4303
2.73977 9.87546 36.707
2.61481 9.71124 38.446
2.72704 9.80384 36.6222
2.56532 9.35728 37.6922
2.671 9.82837 37.0541
2.59556 9.4876 36.5366
2.52503 9.16672 35.8111
2.58262 9.6332 37.9159
2.6348 9.5582 35.3797
2.50285 9.35587 36.7698
2.63018 9.71329 37.6049
2.62591 9.69221 37.8727
2.68397 9.69319 36.6775
2.56881 9.33301 35.8767
2.53113 9.4841 36.7796
2.57408 9.25748 37.3477
2.65375 9.49453 36.3223
2.53683 9.26876 36.6495
2.61344 9.84433 37.5616
2.62805 9.30305 37.7609
2.64609 9.56582 37.4297
2.64717 9.46252 36.143
2.53207 9.78096 37.5698
2.59862 9.18071 36.2389
2.53247 9.67445 38.006
2.63974 9.81674 37.8525
2.6388 9.56536 35.0556
2.4046 9.11317 37.1537
2.59227 9.12665 36.0601
2.52851 9.22061 35.7542
2.47443 9.49044 36.3277
2.56594 9.57808 39.1439
2.73055 9.51284 36.5251
2.57173 9.6277 36.8098
2.54024 9.16534 35.2546
2.45508 9.27202 35.9046
2.50568 9.34115 36.6892
2.50541 9.35501 37.8468
2.57907 9.26911 35.7024
2.52576 9.3828 34.6388
2.38579 9.11874 36.8713
2.53496 9.50481 35.4431
2.41922 9.3273 36.6126
2.49217 9.12336 36.7866
2.51959 9.52448 37.565
2.57014 9.30064 36.7865
2.55524 9.72952 37.4859
2.55491 9.17985 36.8854
2.53364 9.49031 35.9046
2.48927 9.25834 36.8061
2.52497 9.15355 36.4086
2.52515 9.18576 35.9306
2.48209 9.32012 35.7278
2.45902 9.11058 36.6261
2.53723 9.62741 37.1724
2.50982 9.38208 35.3168
2.39483 9.05255 36.6881
2.5174 9.17434 35.8795
2.44899 9.25867 36.6374
2.51387 9.23197 36.9489
2.53728 9.33239 35.8211
2.48747 9.29469 36.2337
2.45392 9.21033 36.393
2.52549 9.46425 36.7795
2.50757 9.21059 36.5619
2.52413 9.1345 36.4284
2.47134 9.29622 37.1985
2.53997 9.444 37.1275
2.51827 9.13161 34.8343
2.41011 9.0861 35.5223
2.40404 9.21546 36.692
2.52297 9.63948 36.7794
2.52872 11.7486 59.9664
3.98595 11.7687 37.8734
2.56515 9.72784 36.4706
2.46759 9.40922 36.4039
2.45311 9.31258 37.3159
2.55485 9.49302 37.1524
2.55922 9.36247 36.7375
2.51627 9.37543 37.4111
2.57609 9.30556 36.0525
2.44909 9.5611 37.7648
2.58051 9.3799 36.0995
2.43313 9.19249 37.5702
2.58896 9.56763 35.8389
2.42386 9.06399 37.8578
2.60374 9.3711 36.5896
2.46131 9.39205 37.2383
2.55275 9.43285 36.6464
2.45183 9.07786 36.8873
2.55183 9.37879 37.0806
2.51541 9.4352 35.9799
2.42833 9.06932 37.6008
2.52646 9.0343 35.7445
2.4483 9.51093 36.4256
2.45113 9.53032 38.1058
2.55736 9.20115 37.4538
2.49928 9.0317 36.2073
2.45128 9.15723 37.2208
2.48858 9.58974 36.6489
2.43729 9.24985 37.3118
2.49863 9.25272 36.3317
2.44062 9.1704 37.191
2.49486 9.31419 37.0751
2.47468 9.46381 35.869
2.41328 8.95129 35.612
2.41023 9.40274 37.1488
2.45963 8.79392 36.1407
2.42332 9.49811 36.8616
2.43363 9.06338 37.3336
2.49346 9.49313 36.0101
2.42772 9.12325 36.9925
2.4937 9.25326 36.6384
2.44436 9.0802 36.1214
2.45429 8.83694 35.5289
2.3962 8.74493 35.8588
2.41114 9.31731 36.8915
2.46523 9.62387 38.7234
2.574 9.1612 35.2973
2.38307 9.33843 36.3508
2.41522 9.30547 37.6979
2.51294 9.37891 35.793
2.4018 8.99041 37.3386
2.49191 9.48084 37.885
2.52858 9.60765 36.8465
2.47841 9.19578 36.9533
2.44402 9.17828 37.972
2.54233 9.60942 37.8474
2.51967 9.39944 35.9773
2.42121 8.96521 36.9569
2.47347 9.21731 37.8255
2.5122 9.3184 36.8612
2.49333 9.47928 37.305
2.47011 9.75494 36.9802
2.50409 9.05901 37.6028
2.51154 9.52942 37.9009
2.51576 9.10379 37.8752
2.51529 9.39652 35.8149
2.38015 9.18649 37.7314
2.47539 9.32775 36.0573
2.37016 8.89914 37.6943
2.52401 9.92789 37.5677
2.51762 9.14853 36.1027
2.37467 9.37786 37.1516
2.47993 8.98623 36.4707
2.43918 9.38257 37.089
2.48658 9.27176 36.7259
2.41911 9.13916 36.7099
2.45057 9.63264 38.0064
2.55399 9.57772 38.1433
2.50711 9.12812 37.2704
2.4859 9.50465 37.5372
2.50625 9.38561 38.611
2.51192 9.35623 36.925
2.4679 9.4551 37.913
2.48454 9.34399 37.7467
2.47581 9.61714 38.0219
2.52074 9.70923 38.394
2.54073 9.53724 37.2244
2.47971 9.25645 37.1402
2.4113 9.54242 38.3222
2.51227 9.31136 36.9587
2.43871 9.56412 37.8216
2.49914 9.46289 37.8254
2.53297 9.50089 37.3828
2.48774 9.73072 40.3793
2.64531 10.0313 41.21
2.73207 10.9208 40.9779
2.7043 12.3467 61.7201
3.98977 0 0