# pn-170911/RbIIA-36-WTZR-1280-1959.psd
# Power spectrum* (dif=0,1,2) (really just |FT|^2)
# NOTE: only the first half! (symmetric)
# weeks: 1280-1959
# 5 clock-days, 0 excluded
# PSD: 1441
8844.07 0.660008 0.0100124
294087 15.7931 0.00836234
796965 16.159 0.0072149
170046 15.9885 0.00984352
296617 6.66602 0.0067932
143347 14.274 0.0150348
36002.8 10.9971 0.00996192
61212.4 4.69249 0.00832137
89905.4 13.628 0.00889632
68420.6 14.5327 0.0138185
40365.9 15.1151 0.00768453
43894.9 13.0998 0.0180019
32619.2 9.58056 0.0138159
14487.5 6.85765 0.0136971
14629.1 5.82545 0.010426
19786.4 6.0465 0.00918391
12857 10.3771 0.0153022
7163.74 7.27221 0.0205806
6592.91 4.26167 0.0195705
9777.27 3.04305 0.0122987
7777.97 5.52664 0.0200945
5441.28 3.11238 0.0108386
2397.09 5.0253 0.021905
5604.79 7.82856 0.0234014
4444.63 7.38821 0.0282693
5918.61 6.41209 0.0189128
5386.96 5.1996 0.0397038
5971.45 16.6215 0.0543296
3113.26 4.95901 0.0394891
2306.23 6.03071 0.0179202
3263.48 4.72216 0.0100155
7191.59 14.5596 0.0892413
1914.16 8.89551 0.0300674
4060.56 8.13588 0.0470881
3471.93 11.4333 0.062935
8565.44 25.5072 0.157614
1827.94 7.0449 0.0598675
6304.51 15.6504 0.102925
1542.65 2.84427 0.044202
1287.41 8.77265 0.0554186
2444.43 9.41517 0.113994
2133.43 5.39962 0.0661548
2294.36 9.34304 0.0812376
1254.09 6.69614 0.0520261
3267.71 18.417 0.188186
1460.31 7.89011 0.0812219
2379.32 10.2529 0.105634
2477.98 12.036 0.115856
1642.88 9.72677 0.127769
3062.5 18.2448 0.191034
2287.98 18.9172 0.216054
2943.08 17.6618 0.181873
1453.1 7.99928 0.104386
2030.77 10.6937 0.130019
2243.62 15.2985 0.184952
1575.21 9.23008 0.142824
1808.73 11.8375 0.154861
2295.33 14.879 0.292123
1459.33 9.64655 0.160776
764.151 12.3895 0.25134
1470 13.3059 0.177699
1953.69 14.7133 0.292236
827.683 3.76893 0.0766725
842.435 8.3519 0.178499
837.441 5.75151 0.142939
792.584 3.86398 0.083019
991.039 5.15866 0.137852
796.941 5.4768 0.114923
1448.77 16.6529 0.368444
383.791 5.67543 0.14703
751.898 6.70381 0.170421
693.1 7.64893 0.172281
323.588 10.3081 0.308568
1080.26 14.3509 0.350918
672.575 9.55279 0.189313
936.227 12.3265 0.273466
428.046 5.87325 0.160482
647.401 3.52586 0.0974486
826.927 8.84679 0.209301
828.181 7.01086 0.240234
933.299 11.1356 0.34507
517.453 8.91008 0.256799
943.254 13.1437 0.405745
411.086 10.0238 0.294181
370.421 11.9267 0.346144
354.192 10.3667 0.341688
400.529 9.91624 0.284962
294.481 6.70939 0.261076
277.18 12.6395 0.39949
764.445 17.7742 0.704507
346.085 7.39079 0.282573
775.846 9.986 0.395659
515.027 16.0992 0.67338
645.266 15.3706 0.611836
226.09 4.30343 0.188854
337.639 13.8948 0.613698
369.341 6.40959 0.244594
317.641 7.56214 0.356573
285.577 11.295 0.532981
390.73 6.46694 0.276801
168.203 8.70827 0.400092
288.258 3.62225 0.175601
185.706 7.59581 0.405942
263.287 9.05414 0.507347
438.544 15.4594 0.803618
328.031 11.9283 0.66264
575.569 9.69638 0.53789
275.652 7.85916 0.46258
200.068 11.2588 0.661243
274.198 6.54663 0.401798
446.267 7.22637 0.388886
157.235 5.41046 0.298786
165.412 4.45452 0.240321
411.973 8.56286 0.558929
232.419 10.9165 0.622025
178.336 7.54066 0.389599
156.885 5.6603 0.355808
279.459 10.0602 0.638362
221.669 15.4819 1.0618
437.134 19.9777 1.24125
188.902 6.01295 0.438364
294.829 11.6717 0.770798
311.018 6.77867 0.469408
252.83 14.4206 1.0501
173.315 5.09444 0.415038
146.577 7.27785 0.509248
206.59 4.01043 0.287242
115.9 8.09536 0.649901
143.093 3.8835 0.308142
134.243 8.3067 0.638998
199.756 5.37876 0.453077
150.832 7.53501 0.738845
171.509 9.81801 0.796581
140.392 3.47962 0.337602
259.777 9.15664 0.834624
203.928 6.28518 0.619572
414.306 14.0874 1.21984
147.223 3.35969 0.277259
203.836 5.90566 0.494475
209.269 9.82259 0.933388
216.533 4.99691 0.401772
261.098 9.31259 1.01099
210.465 7.32997 0.651002
136.592 4.20001 0.4239
184.514 9.1686 0.983657
194.538 9.83382 0.98144
238.531 11.6878 1.13214
276.119 16.8386 1.83681
136.962 7.05334 0.756859
110.24 6.60786 0.783415
178.169 8.40259 0.853061
263.296 8.65757 0.933541
305.568 23.7487 2.66403
273.172 11.4682 1.402
115.142 5.0108 0.522668
127.874 4.69643 0.577285
100.552 8.61875 1.13083
182.957 11.5451 1.49262
52.5431 6.67053 0.829854
67.7086 10.2544 1.34357
91.9886 9.73822 1.57197
135.702 10.4388 1.17695
152.548 7.76494 1.15835
67.738 3.96053 0.589853
192.221 8.84745 1.38345
115.391 4.53615 0.590806
245.694 17.5943 2.23248
54.9078 4.15619 0.656469
189.777 13.1196 1.76623
192.36 10.5586 1.61677
131.574 9.43176 1.34037
138.408 6.6603 0.831852
102.379 5.47059 0.826143
146.227 8.35693 1.04753
65.7547 2.44951 0.200169
98.4871 11.1881 1.64219
178.134 13.5158 1.92127
102.467 7.28901 0.854066
113.618 7.75074 0.97827
126.013 18.324 2.66583
156.59 6.98963 1.03331
76.4049 4.45559 0.556099
90.7176 3.35146 0.449641
111.746 12.6092 1.81973
82.0524 5.36569 0.90828
134.171 15.012 2.38173
79.3739 12.3749 2.02448
93.367 9.23411 1.44744
64.8149 6.38597 1.25058
131.334 9.55239 1.61193
97.7239 9.4883 1.47815
73.7896 5.23343 0.950749
53.4547 7.22112 1.32837
102.031 7.15761 1.31332
119.169 10.4312 1.80168
95.9432 7.65595 1.29365
70.1057 8.78802 1.78135
94.1936 7.5638 1.38905
72.2007 9.20667 1.66152
52.1219 4.88081 0.871553
66.2792 4.91622 0.92411
87.5363 7.45255 1.52229
99.9992 11.7289 2.49887
60.8653 5.35398 0.860575
126.514 9.73195 1.97692
63.6893 5.51346 0.918347
111.388 11.9285 2.14618
88.0374 11.3634 2.09076
78.5442 8.67442 1.75059
78.0232 3.53747 0.690216
49.214 2.63613 0.544781
50.8852 4.55705 1.00023
41.8935 4.53186 0.980548
62.2987 9.3914 2.1748
107.415 10.3936 2.03877
42.648 4.74353 0.975311
63.3867 2.06646 0.35486
61.3239 5.68101 1.24075
78.3528 8.79852 1.68607
43.1706 5.44036 1.06617
55.4392 6.21023 1.37282
40.3449 10.3624 2.38613
56.2021 9.10908 1.78191
51.2078 6.42283 1.48056
58.8613 9.52373 2.36075
96.2933 4.04424 0.747988
72.0692 6.09338 1.41675
66.7839 18.4459 4.43513
70.4715 8.87368 2.451
89.6843 4.69084 0.920427
73.0896 10.5831 2.70902
44.0528 2.40484 0.852966
115.693 11.1892 2.73132
150.378 12.0609 2.96181
64.6461 6.5606 1.97169
88.8299 18.8187 4.79492
100.762 7.52692 1.96193
43.04 1.87886 0.632888
46.7481 9.23132 2.2962
78.2255 11.199 2.78772
41.8751 3.37751 0.93458
64.056 5.57425 1.91094
67.0593 14.4109 3.80235
54.1518 6.60585 1.90898
69.158 5.29555 1.22341
101.324 11.6331 3.47567
19.1881 6.6414 1.64312
73.2736 13.8229 4.56254
81.3158 9.27769 2.06787
86.7084 9.28304 3.06247
25.8448 9.20565 2.32397
93.8995 10.7588 3.13153
37.1248 9.96785 2.60185
43.4006 3.34982 0.998261
49.5413 11.1877 3.17292
50.1135 10.9663 3.34444
51.1467 4.95427 1.6759
43.1617 7.24644 2.41073
68.3706 5.69534 1.68979
55.6551 11.148 3.83853
83.2592 7.67008 2.06883
37.1308 3.94374 1.26384
28.5085 1.81591 0.601011
55.7132 10.3834 3.95883
71.4216 10.1463 2.91015
57.3018 7.08882 2.08287
41.3673 5.59932 1.96286
49.6523 4.86346 1.62673
46.2966 7.68511 2.41136
75.9137 13.1282 4.42685
37.158 1.36821 0.424924
48.5258 3.41483 1.21279
44.2919 3.67487 1.1477
74.5083 6.13567 1.83029
46.9835 4.20595 1.54124
112.197 13.5642 4.97571
72.9859 12.9376 3.71008
55.9134 9.32606 3.51316
44.8064 6.19829 2.15098
74.5371 7.47476 2.58924
36.2877 6.97754 2.1351
59.1007 10.4636 4.51794
53.5418 6.24027 1.97096
36.0857 5.68264 2.52749
47.5484 7.87366 2.96445
42.9759 5.08295 1.67891
50.86 13.0006 5.57227
92.0802 10.2748 3.61749
51.8949 14.9348 6.52192
89.0846 17.3612 5.95046
37.8433 7.69531 3.89013
68.5213 14.3046 5.17045
24.9401 4.96206 1.72138
51.4702 12.1772 4.5631
50.7217 10.2262 4.2655
39.4909 8.8966 3.61866
64.9349 13.3492 5.46389
17.8752 5.6475 2.32826
58.7551 9.10316 4.12919
16.9267 15.1517 5.48114
62.7687 13.5807 5.5288
47.686 14.1114 5.37094
40.3125 6.07424 2.82272
17.7685 11.4694 4.54154
55.7126 7.06474 3.56602
15.4483 8.27763 3.20662
34.1714 7.7577 3.8175
22.2636 10.9696 5.03247
70.1112 11.0121 4.66626
44.9812 9.75171 3.88224
56.7382 12.3571 6.46492
74.7487 16.8187 5.57827
51.8251 10.391 4.89512
44.6695 10.3248 4.87153
41.8744 6.78236 2.72286
51.631 9.8449 4.92175
45.18 8.76458 4.20559
27.1404 4.52716 1.37492
28.4846 6.13499 3.34074
59.2394 18.4218 8.56012
42.089 8.51592 3.6892
25.194 8.19825 4.31423
24.5581 7.40198 3.133
26.1992 7.42304 3.60293
22.8338 5.17153 2.44484
35.0629 13.7942 7.66124
46.0893 9.91295 3.64974
10.7043 5.76257 3.16964
36.4055 7.15413 4.09148
37.8212 4.65427 1.90365
21.9775 6.69862 3.67557
36.2046 5.70066 2.63859
17.8899 9.477 5.45672
53.9789 19.5805 10.011
55.8602 10.5819 5.17984
34.7674 8.04396 3.35513
19.6045 5.62402 3.18597
28.6877 9.04028 3.65665
23.3628 12.2924 6.43972
30.8038 6.56806 3.35906
42.1281 9.25474 5.2754
25.5066 7.9256 3.81234
26.8821 9.79857 4.7555
53.9663 14.0816 8.5538
17.8266 10.6397 5.37421
58.2455 14.8502 7.18263
27.16 7.88136 4.37617
55.3774 9.63419 4.92
28.4336 10.4612 6.19942
43.953 12.7793 7.00658
51.7414 14.3714 7.13787
43.8565 12.3067 8.67262
52.5119 16.4639 7.7091
18.1709 9.31271 5.24076
39.9363 7.5591 4.38395
15.5041 3.46567 1.909
16.5008 8.41125 4.34088
33.0107 9.67072 5.66787
18.4052 7.68069 4.81215
29.839 9.19347 5.94518
13.9842 10.2891 6.09594
37.2363 9.89969 6.56882
34.6756 10.5494 5.0944
23.6048 7.09487 4.05172
16.368 3.62148 3.05525
59.7721 14.798 8.07495
17.5209 3.24843 2.03554
41.3737 13.422 8.6932
20.6494 8.73469 4.32744
44.5498 9.65443 6.44056
22.7119 7.60032 5.91064
33.8528 6.61345 3.4499
39.2235 17.0237 9.08786
35.8395 9.60072 5.79238
20.6177 11.8675 7.99086
19.695 7.5375 4.58379
17.3399 3.42162 2.28036
29.5327 11.6603 7.08174
22.5397 2.79379 0.840291
31.1559 13.4557 8.46866
18.5687 3.69567 3.74251
16.4616 5.70887 4.3584
26.5739 8.51401 5.92434
37.4006 8.52909 4.39119
32.0251 10.2631 6.78802
24.5985 13.2222 6.38239
33.601 14.9693 9.73533
17.3391 6.8767 4.2943
19.1748 10.2896 6.42617
30.7048 11.0593 7.40906
19.6623 10.1637 7.59712
25.627 7.86376 6.18167
42.9135 12.1818 7.73559
34.0649 5.86973 4.69268
14.0992 11.8836 8.56885
23.9571 8.09907 5.67569
24.7065 8.38428 6.57878
27.7145 4.58758 3.08483
21.2327 7.30989 5.03287
33.8208 11.6159 10.2729
6.29166 5.28178 4.83651
25.031 6.9603 5.41382
46.2407 19.9432 15.5486
22.815 7.70106 6.46007
20.2146 8.07262 6.79786
10.7071 4.28507 4.11305
25.3837 15.7981 11.7394
21.8951 10.0575 7.75793
21.3747 5.88733 7.46901
12.54 8.65942 6.89143
10.3159 7.25768 5.76814
13.3624 7.28372 7.81394
43.1048 12.7915 8.07274
9.77655 6.87662 6.22017
16.1061 11.9375 8.1488
18.5879 3.57253 5.88379
45.2533 17.0184 9.80063
30.696 9.69193 8.03936
25.6006 7.605 4.23142
20.4959 4.97901 5.65139
38.9359 20.1183 12.9607
20.0961 6.47504 6.78402
33.9818 10.6511 5.20121
14.2063 4.64566 1.95924
29.2676 17.5485 14.1844
20.3423 9.13013 6.02617
19.7549 12.0041 11.989
19.6301 17.8107 15.6946
30.7318 9.75034 10.0917
35.6001 8.62719 6.8361
17.5803 12.214 9.12566
16.4719 8.41346 8.05876
27.9045 5.43821 4.48171
34.1014 12.3864 8.09161
10.0039 10.9399 10.7048
20.2815 8.80551 9.54018
42.1736 13.0663 12.0653
34.4858 11.9576 6.40259
28.8745 10.4805 8.49487
14.3471 1.52772 2.87785
23.7592 5.97754 5.68425
33.893 10.6234 7.7789
17.0534 8.84011 6.47434
25.2935 5.93308 5.84104
31.2717 13.2913 8.66909
31.2751 8.74329 6.64566
34.993 21.5567 17.3643
25.4463 4.65331 2.61175
36.667 18.5552 14.5253
36.6009 10.8668 8.98233
41.2877 20.1892 15.1509
16.9876 6.81259 5.23981
29.0971 13.8259 13.3664
28.5473 11.7843 13.62
9.99594 2.53407 3.64136
15.103 9.55056 6.52951
12.8429 5.16303 4.46274
29.7458 11.5227 10.0668
15.8812 3.26774 5.4613
19.0222 10.9119 9.59352
26.3943 16.001 14.9768
11.975 4.75359 6.45502
16.0619 6.75712 5.2986
16.3588 7.5372 8.63129
22.2968 15.0608 16.8787
15.4511 6.77443 6.01442
22.7982 7.4762 7.92831
16.7724 8.16807 7.20781
11.7513 4.51412 4.98816
9.94934 6.51069 6.42836
15.7792 12.1731 10.7665
18.2464 14.8168 16.5164
16.8942 3.33174 2.71212
7.9314 10.311 8.48021
8.42657 5.95341 7.01852
12.6253 8.54964 12.1621
18.9292 6.00132 5.47669
23.0305 7.05372 4.27245
11.4005 2.28659 3.24391
20.9954 5.41832 3.89689
17.599 3.17194 1.76984
18.7322 4.52079 4.92316
18.0924 13.4142 12.256
12.2078 6.46168 8.63104
16.3585 5.84326 5.08353
23.3948 7.326 8.03287
13.5706 10.0208 8.98958
24.5925 13.0232 13.1751
13.7911 8.69381 9.66907
26.2423 17.6987 14.6867
9.55954 11.7562 12.8149
31.6471 11.0828 10.4024
14.8473 6.34396 6.0901
18.1581 12.8977 11.8589
18.8725 10.5365 13.8743
13.524 8.57082 9.04158
11.2309 7.36305 9.58002
16.8962 18.7747 18.1923
20.0609 8.61422 10.2169
13.6774 5.69865 8.72534
14.4153 7.87763 7.36298
16.1723 5.04195 4.3989
26.1756 12.5364 11.5024
17.6941 12.1242 13.0635
19.1615 3.59005 2.47712
28.3386 11.1059 11.7081
10.3986 7.50597 10.8741
18.5908 5.49039 5.80936
18.561 14.2955 17.4964
22.6846 15.5704 18.2274
10.1342 7.37702 7.0741
10.737 7.07563 7.93678
17.5581 9.23337 7.49351
12.5604 15.2264 17.5802
17.5645 5.03843 4.53951
15.0257 10.0607 13.4376
15.1309 9.38808 9.79632
5.60999 7.45578 8.43355
11.6682 7.12368 10.4218
10.9734 4.01637 7.31301
23.8083 12.0846 11.9202
9.29227 6.20561 7.0135
14.1715 9.00938 12.1853
12.3759 11.1869 20.8171
39.5437 15.6281 17.4512
22.3526 10.6788 11.5825
26.5438 10.3856 10.3184
15.1581 15.8642 29.2733
30.6802 11.2685 9.74167
10.2883 3.73459 4.31572
19.2724 10.9088 13.3512
23.3799 9.90858 9.97634
19.9334 7.72886 7.36127
14.5024 11.5066 13.5101
18.5349 9.58924 9.1108
21.6883 10.9744 11.0539
23.7058 9.2206 9.82071
13.0914 12.2481 14.2135
12.8603 9.92667 9.87204
12.7357 9.45026 12.9645
15.6649 5.75274 7.33199
14.8434 9.17765 13.3963
9.75267 7.62045 7.0512
15.2177 8.58241 10.8624
12.5844 4.02516 4.7848
16.0985 24.0843 31.6599
9.22684 11.4412 13.2216
13.836 5.29801 6.15785
13.921 8.4179 10.6619
7.6084 9.4144 13.1032
10.5851 3.74265 8.61071
18.7233 9.54289 8.995
13.5323 10.3028 14.4644
12.5515 3.51326 7.09471
9.54592 7.85566 7.62736
17.5866 15.3899 24.9407
9.60153 9.9865 9.79786
6.67327 4.62196 4.92737
4.98222 6.35595 10.9095
16.7032 8.95145 13.6308
23.9431 11.6824 9.10308
11.0587 9.97749 16.9768
20.9439 11.4981 14.4664
19.5325 13.071 13.295
15.9847 10.9621 10.2527
8.35074 8.87457 19.1155
28.3647 14.8128 16.8326
17.1239 14.9866 18.5036
9.89263 6.79027 9.10574
12.453 16.3655 20.5365
13.1344 5.72408 3.4637
12.1784 10.5525 17.9336
15.7134 23.252 27.7723
13.4357 11.3493 23.8685
29.7942 16.4118 16.28
15.4501 5.86036 8.43924
14.4394 14.9296 23.2547
12.7464 10.378 20.2146
18.3146 10.0035 13.0352
15.6341 3.34225 4.33949
13.0518 7.66562 14.8254
17.3935 10.0149 8.19138
8.56944 4.04664 7.91986
16.313 8.50315 11.7983
13.2074 10.7435 18.5681
21.4821 12.7675 14.2083
12.9242 4.89908 11.3899
16.092 18.3531 18.9553
13.0591 7.96821 7.01068
11.1244 9.06643 13.4919
12.9465 5.10865 9.10227
12.4304 10.1673 14.0048
13.7935 10.5068 15.2383
14.2912 18.2406 24.7834
9.89559 13.0856 19.0566
15.4723 13.2227 23.5866
10.0865 7.37629 10.917
10.4682 4.97013 9.21184
8.68461 17.7281 32.3774
27.3088 17.0403 22.3941
8.75807 3.7776 3.6763
13.7168 7.61512 8.33159
17.0948 16.7256 23.4717
13.1185 8.63226 14.6333
13.675 17.273 20.4811
11.914 13.4491 21.6031
15.9745 12.154 19.8876
12.9536 9.62105 9.80287
8.87389 5.27214 10.9579
16.2156 15.0884 23.2427
11.7325 9.72345 13.7479
14.6832 18.6481 33.903
11.9245 6.36547 9.94982
8.70928 5.07126 12.082
17.0147 12.1058 19.5549
14.6698 10.4381 14.69
14.641 9.41079 13.7955
8.18616 10.2058 17.6158
13.5271 7.65245 12.5336
24.4712 23.4198 38.2033
9.98118 8.42406 13.965
12.3431 6.5606 13.3221
18.0806 19.7292 25.9918
3.24116 6.91331 15.3615
12.2795 16.3478 18.5462
6.48906 2.93145 7.39882
6.82873 18.0951 26.4098
10.5017 8.87403 13.5869
10.1762 18.1832 28.8764
12.7096 7.11115 10.0313
5.77647 6.81214 13.5679
6.07507 3.82664 9.96193
3.91252 4.35827 15.8345
13.7841 12.4297 13.5865
10.3989 5.46038 6.10144
8.16823 7.5048 13.0547
11.8824 6.83215 10.9159
6.36274 8.51767 13.4296
12.7695 5.92138 13.7776
9.60545 10.3885 20.2064
12.6677 12.347 16.8695
3.9985 3.99898 13.5948
13.2903 9.29149 13.4269
8.91825 6.73131 18.1878
14.9097 8.13845 12.2412
11.2971 6.50758 9.27903
13.7838 8.34186 13.1592
3.1253 6.08731 21.99
16.6795 16.5868 19.9523
8.25717 8.88063 19.8456
14.561 8.06221 10.7659
8.90123 9.23525 18.2439
9.48563 5.37659 7.96116
9.45868 6.49744 15.7299
5.70126 6.66345 11.9656
12.9427 6.97521 5.38477
10.8397 6.92695 5.72844
7.73693 9.03933 14.0055
3.60402 2.14162 3.0001
10.7431 26.0558 33.4671
6.40253 7.12785 14.8408
8.16988 8.00927 13.1637
9.73575 4.26639 8.05426
9.13563 7.85386 18.1225
12.0844 8.98979 7.78303
4.20347 3.53453 10.0276
14.9952 11.6642 13.7422
9.52556 11.1634 13.8654
9.50401 9.53401 23.2393
15.5069 13.272 16.9144
9.29085 7.02747 8.00255
7.30058 11.3645 23.1486
7.52787 3.51538 10.7985
5.94782 8.36172 15.2386
13.5146 11.5072 16.8948
8.08156 13.9182 31.0523
6.44638 4.94959 8.97397
10.3182 8.01458 12.4013
11.6187 9.73351 24.5189
9.34507 11.8734 21.0022
7.98716 5.76412 12.0693
9.22221 10.7511 17.8697
8.15169 14.7299 26.0464
14.1996 10.8437 21.6231
8.66322 9.8641 14.9514
5.60466 4.46994 9.62963
8.75942 13.2713 19.1467
10.9756 10.4502 18.8214
8.70619 10.1338 19.5002
12.5651 11.5316 17.0236
4.89089 10.0115 21.9278
13.2076 11.6828 30.3241
16.5501 12.4386 15.9674
6.88098 11.195 21.5827
6.50229 4.22248 5.3358
2.57569 6.99379 18.8002
14.8288 8.82662 8.65148
6.75827 5.85983 15.8459
11.7714 14.2158 23.3492
6.47663 7.84203 12.7718
5.87731 1.88227 4.70643
5.35798 8.01588 12.6162
9.4911 9.75375 20.9509
6.5047 7.73355 20.703
12.2248 14.6795 30.5188
9.66472 2.53594 10.8583
9.89668 3.97503 4.73053
13.8784 18.53 33.0984
8.26409 5.21045 18.3993
5.2365 15.3856 37.7964
17.9545 13.7541 25.7968
12.6709 4.5002 17.947
14.537 9.58048 14.3495
9.4284 3.54925 4.72658
11.3369 11.1833 13.7311
6.57281 3.36315 8.87435
16.0889 12.3247 19.9166
9.92023 10.796 14.1735
10.4658 13.361 21.626
8.31642 5.62613 9.52363
5.592 8.4884 19.3288
9.99252 9.76396 17.8409
5.99419 6.31101 15.1278
7.63618 7.91272 16.5765
7.64056 7.87675 14.9984
11.965 14.8606 23.7117
5.04662 7.87619 24.0932
16.4738 11.5118 28.5852
12.7876 9.47946 14.8393
8.47367 8.13757 17.8576
9.14635 12.2783 33.7344
10.6487 9.39281 17.5961
11.1045 7.70362 13.5453
5.08772 7.44892 14.5381
12.0773 11.9467 31.8971
14.3214 22.1713 36.846
10.3588 10.9017 25.0642
3.18097 8.42079 31.4858
13.7012 23.4194 36.5516
9.41762 8.23183 21.8338
4.61313 6.69018 21.3601
7.35676 7.40307 12.2182
10.5519 11.9813 15.4309
3.29432 6.18692 10.4971
2.88192 8.35434 20.1117
5.11148 10.9293 31.8935
12.4917 11.0074 27.2466
11.4748 13.7575 25.6806
4.61893 6.38196 20.3219
8.00411 5.05964 8.1889
8.91972 5.24527 13.9388
7.96329 5.262 13.1084
8.48167 5.51122 22.291
13.4536 11.6463 12.7396
14.3088 11.4835 18.7723
12.7841 13.389 26.8095
10.6596 13.0843 32.1425
6.02344 9.7367 16.8961
10.1969 11.3765 22.526
5.50043 9.88816 24.4027
11.5727 17.5978 34.7964
5.25461 3.953 8.39576
5.75776 8.84568 15.4949
5.49769 6.93351 20.2168
10.7868 8.00839 22.84
10.1949 8.04239 9.7365
3.64121 11.8895 25.0216
5.80427 14.0743 39.3406
15.5733 8.67303 20.751
9.67909 18.7365 32.3194
9.54799 8.97319 15.6248
4.73384 6.01827 21.5192
13.3487 11.6036 19.3923
7.0733 5.04346 16.6475
7.02015 4.73105 13.0712
6.11023 12.7853 46.1861
12.1846 12.6033 29.4774
14.6118 12.0522 25.666
7.61592 7.68421 14.7343
4.74938 4.94115 18.4283
9.50109 3.41498 7.01234
8.71597 6.20589 5.45797
6.93477 9.7353 19.1314
7.17151 7.6475 25.6351
10.4256 9.19512 17.3162
9.70116 8.78013 10.423
8.09563 8.34826 18.2605
10.604 9.64018 18.3334
5.95167 9.29595 22.153
14.1046 14.87 32.5325
7.22092 14.2175 28.714
12.6672 14.5724 34.5589
8.87687 10.6204 24.9307
10.1865 4.16781 7.47313
6.49452 4.1813 13.2394
9.76693 9.2654 26.9925
8.05096 7.53138 14.3752
10.4471 12.8658 31.7714
7.1742 8.82147 19.8345
4.7784 2.59127 12.8154
8.48139 8.67641 15.3335
5.2345 3.43918 14.9291
13.4546 24.4104 42.3952
9.95107 8.26967 11.5878
7.3926 8.73338 21.4295
4.84231 6.65708 17.0274
1.06819 5.16596 14.3678
7.8892 9.36552 17.8348
5.86651 10.1423 20.3573
5.47169 12.9706 42.8835
6.58359 7.1775 21.8553
8.28916 18.2306 51.0765
7.94925 8.46322 40.0111
13.3331 15.4112 19.1587
5.36976 10.219 30.5732
7.49216 7.56206 26.383
11.8588 12.3799 37.4709
5.21807 11.7832 21.7448
7.80493 12.5403 19.6291
7.63212 7.04739 21.9007
5.43009 7.73268 25.0593
5.17993 8.07651 15.4699
10.4734 18.1038 30.0338
8.2095 13.3807 34.7304
8.60047 12.2222 19.0552
6.26187 9.88465 28.3125
9.70615 16.9662 44.8793
7.83897 8.08679 21.4839
7.91619 3.70379 8.98288
9.56478 11.1897 32.6117
9.67957 8.80186 21.5101
8.2904 13.0885 25.3836
3.70956 9.37385 32.7874
13.1098 17.4797 35.0295
8.89351 10.5093 17.5286
5.04077 13.9461 47.0821
9.06528 6.34669 15.7408
7.59219 7.96028 13.674
7.59488 9.88477 20.8643
5.84565 7.77784 19.1496
5.74398 7.81381 22.1148
5.44231 6.04016 24.3865
5.77449 10.4194 25.2441
9.26891 4.35502 23.7903
17.7602 21.2154 42.9735
6.05261 9.42344 29.0487
5.51413 8.06689 10.6168
7.77288 20.3503 71.452
12.8911 24.5124 67.0815
8.2765 9.14199 32.9941
11.3443 10.3742 12.4588
6.60247 8.09175 24.7257
9.14828 8.70632 28.8129
6.46049 15.2959 40.8363
8.18118 3.16277 16.0561
9.23641 9.51937 25.6334
6.85515 7.7335 29.9392
8.2803 11.2114 31.1909
12.263 18.1262 29.9227
8.04726 16.2636 37.2171
3.92434 7.59807 21.0332
8.27433 9.12054 22.6765
11.9031 20.1501 33.3022
9.17633 19.0656 48.2476
9.54752 10.4862 41.1455
9.49455 4.74164 3.97749
7.72436 5.78648 8.09712
7.49021 13.9844 44.2109
8.37719 4.46494 21.7969
8.92723 8.76469 15.7066
10.0388 16.4922 26.7838
6.55386 9.88041 30.878
4.99825 9.61286 40.363
7.51676 20.1353 62.9686
10.1725 12.1486 32.0373
6.69705 6.83671 13.341
2.56919 8.6788 54.3309
9.93926 17.0529 27.0472
5.05772 8.88638 24.4974
4.61078 11.3814 25.4617
7.76394 12.4508 44.8648
5.65231 16.3167 28.0622
8.41266 7.2674 12.6082
5.57845 14.8771 32.9767
7.97388 11.7732 39.0693
6.63103 17.5011 47.9757
12.5209 16.4713 38.1302
3.96193 18.2314 67.3661
11.2858 6.84559 41.8735
10.8536 19.8193 23.5984
5.16529 17.1771 43.3614
9.81496 21.7776 71.8158
10.3805 6.98469 21.072
5.01965 22.7405 47.4146
7.41053 4.02463 18.933
5.24546 12.5314 25.9604
5.62559 6.59196 32.8657
6.87341 10.9876 33.1952
3.69414 14.316 34.0624
6.98381 6.24306 18.9828
3.36441 3.78473 18.4222
6.35817 12.0669 54.7575
9.38419 9.08926 11.34
8.50983 12.0149 31.6686
8.62992 16.3357 48.1876
8.34095 7.86874 29.698
7.21922 11.0124 24.6825
12.0439 17.3903 28.7927
5.46274 10.308 49.0712
13.4309 21.0455 24.4486
3.3561 16.5046 48.8483
11.4269 20.4462 46.9507
4.34665 7.35838 27.4978
7.64914 11.0609 39.1834
7.69335 15.6958 23.6861
5.65952 10.1352 22.8049
6.83945 12.5669 41.3728
10.3824 12.7746 24.1797
6.28897 8.77112 34.0465
4.54668 10.0604 22.7737
4.24036 5.75249 19.3683
6.40962 6.0914 21.6571
10.3376 12.3723 20.7231
2.70563 3.3565 7.89226
5.58047 5.08139 8.84739
5.18356 10.1892 40.2569
5.87225 6.43378 11.062
5.96817 12.6818 25.2268
4.00188 5.08834 17.579
7.44394 12.4537 31.7246
7.0823 10.191 20.9638
3.91837 9.36005 33.5975
2.20165 4.29965 40.7425
8.75518 20.9927 31.1322
4.42228 12.329 36.43
4.21918 3.61226 20.9361
5.57647 9.67916 35.4404
5.0227 14.8735 41.8658
5.532 10.7757 36.1554
10.7293 14.2957 43.1677
6.50013 5.08629 11.9846
7.53918 13.5818 28.3442
4.10864 10.1621 32.0078
8.45159 18.2641 33.7455
4.66771 2.72976 11.9409
6.22975 8.98541 22.9971
1.74115 12.3218 21.4121
2.79474 5.47567 26.5281
7.79792 7.83682 18.7278
3.34948 12.7313 50.2561
8.20341 14.7731 45.9053
4.59577 8.22818 21.2773
6.89791 10.121 28.1146
7.97964 14.202 41.0785
5.1888 5.84381 20.0293
4.85881 9.39358 33.5122
7.09428 5.73241 6.4332
3.61779 13.6441 40.9021
6.48024 6.7336 25.1227
3.26417 5.35648 15.2754
5.99132 11.0451 31.0774
3.19874 6.62064 35.2967
4.25238 6.51609 25.8928
6.42668 8.47426 34.0192
6.4569 12.0259 19.2554
4.10716 6.63395 27.9011
5.39332 11.6224 41.3878
10.6626 13.2758 29.2425
5.5776 11.468 33.0966
6.06086 12.306 20.8628
3.37502 9.77155 58.4163
13.3761 11.2161 19.0053
7.37736 11.4186 29.7957
3.93307 13.6023 42.1574
4.54049 9.00153 33.052
10.6819 24.0723 50.6958
6.52156 18.7302 65.8381
5.43746 14.2613 34.738
6.82863 10.2246 60.2432
10.0968 21.4248 56.946
12.5473 9.57263 31.387
5.1823 8.94399 42.9112
8.84864 14.5364 43.9757
4.4559 12.3389 31.9945
6.89812 10.0922 36.2125
4.88674 5.74371 26.1136
7.85201 7.76215 19.5049
3.70356 3.37878 22.6889
3.02297 2.94191 20.8908
6.79736 12.6113 36.2029
5.35559 8.53416 22.8457
6.12724 6.3578 22.4212
4.76901 5.28168 22.9755
6.27999 7.6225 15.9147
4.60599 6.51413 21.1047
3.43323 11.002 60.2864
12.6704 22.7938 58.7908
5.46941 3.53605 12.4032
4.92653 13.2681 28.4666
2.93282 14.5762 52.8221
6.72608 6.51337 23.4125
6.57274 6.03111 26.49
6.3637 11.6015 51.8112
7.55558 15.8413 28.7294
5.43939 14.4992 61.597
11.9476 10.2455 26.3001
5.52346 11.8222 40.469
12.5268 15.5399 63.9553
11.543 15.81 40.23
12.3974 28.8973 85.6652
11.4281 19.5457 22.3899
7.1511 13.464 47.1
5.33246 10.6216 47.2574
10.0642 14.6493 44.129
8.46721 19.9487 40.0071
5.65291 17.043 52.1727
7.50558 12.791 23.6562
4.16747 7.49678 33.2404
3.65813 5.51836 19.2875
5.43431 14.0366 85.0265
14.7094 22.7055 38.1959
4.86952 18.5121 59.5597
5.75022 11.3387 44.1836
5.07391 8.24999 18.0665
6.02284 10.3573 55.2211
8.05606 17.3652 25.4791
4.07157 7.73994 11.7657
3.18672 8.96923 22.2044
3.53793 6.16576 30.7913
7.81427 8.3863 40.3189
7.25387 10.9766 24.5668
3.2428 4.90417 25.2558
3.92103 8.37689 24.2886
6.25189 7.64218 29.9519
4.6168 10.3924 54.4225
11.5599 8.03992 15.4171
5.53456 7.93046 24.0826
3.69799 11.6868 33.9355
6.97057 3.66903 30.9754
9.02936 6.42472 35.1959
12.2291 18.2656 37.0493
7.15271 14.9411 28.9517
3.5695 8.39862 36.9299
5.89065 19.4671 51.5616
5.26511 14.9644 47.2793
3.76197 10.1145 37.0973
5.40908 12.9205 60.1708
4.46802 15.5214 41.494
8.03476 4.04826 11.9208
3.66496 12.4239 45.8761
9.38694 23.9976 79.6682
6.19162 14.994 29.9834
5.35524 3.81654 21.9688
3.59678 9.91394 21.8908
4.66473 3.3222 6.69699
4.00128 2.52954 19.123
5.55289 13.8954 40.915
3.93025 7.82473 29.9012
5.19907 7.96172 36.3964
5.54021 6.8901 30.2104
6.99563 6.29395 7.5387
3.50155 8.94105 34.4082
4.82394 7.43507 67.2383
7.12366 20.0934 20.4361
5.11037 6.06503 16.3187
6.75529 14.6364 49.3291
4.82448 10.0221 23.4473
2.65785 4.85482 14.9917
3.72052 4.74439 12.3447
1.79851 7.42055 45.6458
7.37805 14.3492 44.3026
8.58732 4.10805 24.2137
6.81735 10.4295 53.5018
11.9222 17.8663 79.2167
8.76527 18.0987 33.0893
4.25817 6.96202 31.6908
4.17005 14.6051 22.6878
5.88957 9.5142 40.2772
4.43529 8.7448 41.3806
12.0955 12.8713 25.3751
3.40342 26.3537 102.463
15.1823 25.4787 52.0036
4.40707 8.01966 32.5726
9.28658 14.1709 32.7425
1.14288 8.47768 41.5769
8.75545 11.8668 54.1359
2.9583 18.9983 35.9453
6.29593 9.03401 29.9715
4.26463 3.18791 16.4988
5.08594 5.89289 31.6843
6.11993 12.5683 43.4361
7.15392 13.9881 47.3399
6.60671 6.54894 28.5253
9.32703 10.1929 35.9344
4.35502 10.258 47.5727
6.24378 8.16826 37.3657
5.91214 13.2044 30.9255
8.93915 14.1297 41.5916
3.98624 11.9232 58.1656
8.4093 13.3743 24.2225
3.47667 2.70163 16.6702
4.15605 4.88604 38.2392
10.7965 15.8 28.669
5.27768 10.6859 41.5017
6.57143 16.5546 38.5177
4.1023 7.85392 43.8826
6.22361 15.5995 27.9182
7.4484 26.0655 80.9204
7.94651 9.6841 24.3713
2.95557 8.08096 38.3231
5.82362 18.3402 71.7837
7.57234 24.6721 51.5377
2.85838 8.22062 57.9052
6.30853 13.8953 40.823
3.71022 6.97066 39.0279
5.45404 7.97128 15.2118
4.83829 13.6533 54.9961
8.72065 13.0663 33.6703
5.77941 12.0267 56.6978
4.55744 15.9766 38.018
3.11591 9.98244 41.9963
5.241 9.51395 34.7928
4.92126 3.93651 10.722
3.27609 7.39321 18.1939
3.87315 12.0311 25.5835
2.43322 6.12968 22.658
3.83254 8.32872 37.3705
3.59016 13.5383 95.2754
8.33431 13.9466 20.1965
2.28064 4.47722 11.1539
4.11422 27.5631 118.277
11.6578 11.8145 69.4884
7.45149 9.94071 34.7548
5.2007 5.76175 14.9403
3.40343 5.60156 39.8824
8.76879 10.3529 49.3479
5.49199 12.383 20.4435
4.89845 6.74067 30.9516
5.83255 9.20101 29.1357
5.23213 9.138 28.0973
5.4065 15.5517 50.8781
3.8748 9.0428 32.6648
7.46174 20.1957 63.2424
4.01514 3.74939 38.9964
6.66805 9.88323 41.0184
4.24076 12.8164 30.4015
6.03766 5.04129 10.5558
2.83056 7.07985 43.9491
5.12843 3.24617 17.7773
5.4153 6.68145 13.3277
5.68016 7.72049 28.8178
2.35013 4.74002 13.1021
2.4762 8.37761 38.658
2.45568 4.95066 24.3826
5.78587 7.14947 32.7676
3.35336 12.2925 48.0081
7.01534 11.7793 41.6354
3.09644 8.45824 30.6237
6.00215 10.2289 32.8707
3.97417 8.04468 60.8271
7.74966 14.5574 19.5592
4.30742 10.8104 35.2165
6.30784 5.96897 14.2322
3.48092 14.1223 73.1746
4.46096 18.4672 39.9023
6.51178 10.7028 29.199
2.07871 11.0772 59.5194
3.91027 14.592 68.7133
6.10571 9.27594 32.8504
2.85301 5.39592 34.4295
2.42817 21.2693 75.2705
7.95269 15.3981 57.9179
4.30449 6.31179 32.9137
1.1835 6.68389 41.2815
2.71439 24.1771 58.7169
6.58669 12.0295 65.7744
7.47317 15.4478 28.4282
4.62417 11.807 84.5941
7.32846 23.1777 40.4532
2.46877 20.6753 68.8234
8.29718 23.9406 62.1704
8.07178 14.854 49.5679
4.9171 9.68063 16.0003
3.26023 17.4942 68.657
4.98598 11.2609 58.0379
10.6914 25.6386 73.8186
5.79255 20.6691 86.9964
4.79775 5.55239 53.6123
6.16085 11.6805 45.5044
5.80126 7.30261 25.7299
5.9469 11.6202 31.7799
4.3035 9.61372 45.8689
5.45462 15.2355 31.9145
5.36915 9.675 41.4746
6.68408 13.7177 63.8275
4.64904 18.8646 44.082
7.35914 7.99046 28.1057
4.0486 8.9839 29.961
6.05638 7.44325 41.9276
3.72344 7.47618 21.7665
4.37555 8.55128 24.8752
4.6088 12.3234 41.2364
6.56311 14.7308 75.3633
6.6349 10.7854 24.2444
5.70922 14.5106 86.2823
10.3891 18.4244 21.7426
4.48037 11.5997 42.4554
3.86833 14.7287 75.7428
5.82707 6.38845 29.5881
4.26507 15.7019 49.73
8.27052 7.34451 64.4388
8.21069 7.82536 15.094
5.38869 5.56887 26.1154
4.33941 6.11367 19.7593
3.55369 9.98245 37.0832
7.1322 8.80804 28.8804
4.09198 3.83695 31.3209
6.55531 6.78677 12.4553
1.34848 10.5016 24.5972
4.6512 10.333 71.1002
10.0518 10.9449 33.3744
6.89959 9.68935 31.2874
1.72383 8.95579 60.3217
11.3229 10.5033 40.4537
5.2277 24.0419 87.0946
8.29448 12.6675 66.1172
7.21005 15.0198 20.1564
3.27568 7.07348 40.8567
3.9645 6.45918 31.762
5.32633 10.698 39.8899
4.49313 10.6055 29.3438
5.19982 8.32683 42.7661
7.35359 18.8957 47.5006
2.72402 14.021 54.6647
7.63968 10.5364 27.1199
3.10531 8.92799 46.2072
9.06077 25.7806 75.9583
3.96925 9.10322 32.1357
4.14929 7.78794 62.8574
6.62467 11.3979 21.2207
4.66303 11.2431 48.3229
5.82721 8.89745 26.3157
4.47071 13.4023 86.3909
7.09156 12.1891 36.1289
5.03759 18.8965 37.7589
5.57909 10.3312 39.5907
6.331 4.60753 35.1907
5.12834 13.1604 25.4833
7.44708 22.1041 50.039
5.29921 11.37 39.5363
4.7022 13.0931 56.5542
7.9944 13.406 64.4105
8.69779 7.7829 35.1219
4.62134 5.60694 17.8196
5.93876 9.22663 26.7773
2.62115 9.00451 45.8757
6.26349 8.49687 46.9061
5.01938 10.8668 33.1768
6.66391 5.77289 47.1791
4.2938 12.2276 21.0692
5.19526 8.73699 49.4145
8.12361 3.52978 24.8831
6.6795 8.54821 20.3465
3.73789 3.27269 30.9839
5.12046 7.5847 17.9401
4.92604 9.09026 30.6776
5.14937 4.76007 22.6552
4.01238 17.3486 70.7753
8.46987 11.8517 52.0156
4.83648 3.04215 10.5503
4.27972 5.22816 18.9228
3.923 8.59936 28.6799
4.3192 2.55503 9.8469
4.21947 9.82618 48.0603
9.12915 15.2454 63.6321
5.85879 13.432 39.38
4.77415 7.91093 16.4232
4.66511 7.42036 45.0779
7.22383 7.1528 16.2177
3.22599 10.2693 33.842
4.57407 13.6211 43.5347
3.22205 8.61627 59.178
7.62069 12.6627 22.13
2.67294 6.8491 41.2725
7.62451 15.8741 49.3291
6.62591 5.12954 7.77151
3.08046 10.4029 43.575
4.78196 4.53317 37.6148
5.50584 5.7445 53.3997
7.26481 12.2814 62.8054
3.65077 23.8637 84.8529
8.43299 11.4878 51.6436
5.64368 8.96513 48.8547
8.61697 11.5686 12.486
1.44093 9.00097 60.6615
8.07815 14.5731 30.6508
5.59722 11.6632 69.81
6.14166 16.2925 50.5388
3.3182 10.8332 19.0957
3.37896 5.85636 23.8344
3.45383 4.81162 41.6765
5.0954 18.9942 32.7064
4.2082 1.84649 22.2287
3.48712 7.07346 31.5241
2.10006 7.20995 20.3002
2.74578 3.66338 26.0554
2.52511 9.99241 45.6641
6.14655 5.29974 35.4605
5.50624 15.9974 35.2287
3.22022 11.7273 43.6652
6.70043 8.21953 36.7331
4.69806 8.19652 26.4752
4.72496 21.0225 90.1635
8.32898 14.8125 55.7559
4.06239 8.60176 12.619
2.47868 7.44794 36.3352
3.39997 4.96905 21.9122
0.887847 8.62325 68.6896
6.5397 18.1849 33.0816
5.06075 11.5008 74.1566
5.66827 12.3353 96.2235
11.0612 19.6305 67.5121
3.25974 16.6697 71.2172
8.77999 11.3969 43.9333
4.91067 16.618 60.135
6.26069 6.97304 29.806
2.21421 7.05683 45.1667
7.1414 17.0518 41.2161
3.84285 7.71827 82.1982
9.98562 28.9003 68.4146
5.46227 13.4991 23.008
5.01799 6.90463 24.824
3.07096 5.91101 35.6592
6.00476 6.42789 32.9182
2.7312 15.6101 68.6021
8.56636 10.3294 36.8162
2.66654 6.99861 22.6631
5.5652 8.07637 52.8979
6.23173 16.5948 14.255
3.88042 9.09942 53.0971
5.59222 18.6539 53.4942
4.61227 13.6154 33.9521
3.16963 13.5584 41.8982
3.72007 4.68195 60.2843
3.17138 16.2183 29.0532
3.12216 19.8523 71.3614
5.78896 6.49755 24.7221
4.39566 11.8182 53.6348
6.29615 18.0674 55.4044
2.87276 5.37653 57.4892
4.8413 12.065 47.9772
6.45008 12.4469 40.1176
3.73537 14.7033 44.1186
3.86422 7.93452 21.5883
5.64539 8.88642 43.36
4.08831 11.3384 74.8796
9.3106 15.4355 34.5895
1.79264 3.14441 27.4111
3.57021 9.54883 32.9355
1.87375 8.87523 58.2767
5.6892 10.3218 20.7549
2.30981 6.81607 42.1449
6.06871 11.3632 61.9823
4.90187 12.4546 30.951
4.24431 6.0664 21.3164
3.8582 7.29366 22.4958
3.72823 5.32157 26.3071
4.62967 11.0692 51.5662
4.62175 8.88949 49.3552
4.68257 10.0149 56.0244
3.43373 13.0985 58.2049
5.2635 15.362 39.7549
3.99042 13.4113 61.4623
7.83207 11.067 36.353
4.06268 11.6231 38.9938
5.03127 21.7737 112.804
8.35935 16.3358 34.5212
4.43115 8.33707 43.3409
7.3921 10.2951 33.5125
2.45571 10.0079 83.3176
5.88617 16.2443 18.4752
3.88129 4.87615 64.5527
6.12565 12.7493 26.0557
5.21796 13.6135 82.1359
5.35118 19.5733 45.6937
6.96056 3.71618 57.392
5.73251 34.069 87.2538
6.33937 8.16821 26.9603
3.02847 6.66882 49.4439
2.83044 13.952 67.3743
4.91062 14.2652 18.0054
4.44679 2.91762 36.1802
4.63243 14.0219 55.0238
1.59513 6.35426 42.311
2.96495 4.17563 66.883
5.34087 34.1159 68.4549
8.10599 15.854 64.5341
5.61407 10.0227 37.7779
1.67657 31.2616 65.0355
8.61075 23.3214 93.1555
9.80541 13.4978 36.6526
5.66954 5.70633 50.6695
6.04598 21.5573 110.313
8.96379 7.67394 18.9652
3.84448 7.29593 34.1135
4.03646 12.9242 29.6947
5.7587 7.37398 21.8455
2.50768 5.08879 42.6265
5.98943 10.622 33.3937
4.99149 5.75331 22.8587
4.98305 12.1618 49.7208
3.23628 10.7092 64.4653
7.78523 9.78062 51.6214
6.71539 19.248 49.6892
5.52479 14.9833 28.6476
4.05792 8.86234 106.79
12.1862 25.8194 63.8234
6.39574 11.2283 23.9722
3.94677 9.56411 41.4625
6.6843 7.60436 52.9756
6.39191 19.2225 86.692
7.73845 21.1237 51.7273
4.84771 6.81775 39.9885
4.29714 8.63064 41.0644
3.8213 13.0163 17.3236
3.93938 7.85886 53.3718
4.76689 12.0449 66.1279
8.6999 8.79261 32.5743
5.80497 18.6569 39.041
5.20512 7.86174 62.0695
6.31908 19.1296 97.2695
13.2572 14.2854 51.3451
6.76559 10.5467 26.6355
2.56942 8.95065 56.5575
6.97156 8.41576 45.4144
8.22548 12.7471 62.9077
6.80692 8.8782 23.659
3.36392 11.7233 57.0837
2.63443 13.0689 44.8408
4.8604 13.4394 42.9086
5.14474 0 0