# pn-170911/RbIIA-35-AMC2-1280-1959.psd
# Power spectrum* (dif=0,1,2) (really just |FT|^2)
# NOTE: only the first half! (symmetric)
# weeks: 1280-1959
# 50 clock-days, 14 excluded
# PSD: 1441
20882.4 0.639033 0.00426802
1.66334e+06 62.7388 0.00197713
4.02037e+06 89.5121 0.0031361
842403 9.6925 0.00167777
714215 15.2162 0.00233722
461560 9.03854 0.00230043
239532 2.66775 0.00199284
112610 5.10781 0.00265019
96617.2 3.60013 0.00264186
70727.8 2.70489 0.00230501
69584.6 3.13262 0.00271322
59959.2 2.1827 0.00326883
57286.5 2.41267 0.00318923
39770.2 1.60242 0.00261548
36061.4 1.7481 0.00275112
31635.7 1.70303 0.00344247
25856.9 1.90219 0.00399083
24233.6 1.81827 0.00391031
21519.5 1.44184 0.00351094
18784.2 1.63127 0.00423083
19901.9 1.91918 0.00511198
16326.5 1.90903 0.00449467
12968.1 1.73478 0.00549685
12391 1.36013 0.00521568
10493.9 1.66486 0.00569539
11867 1.38022 0.00548927
10473.8 1.74245 0.0074583
10546.9 1.61046 0.00732924
9386.24 1.29595 0.00632333
7189.52 1.38666 0.00735501
7008.71 1.29404 0.00655032
7160.74 1.15276 0.006616
7254.48 1.10425 0.00671938
6698.31 1.23988 0.00684537
6419.59 1.35069 0.00864306
5504.11 0.720701 0.00535969
4652.56 1.21106 0.0103871
4414.23 1.03143 0.00891419
4480.21 1.08389 0.00987469
4408.76 1.2171 0.00941337
4494.76 1.19884 0.00972236
4058.44 1.38081 0.0110214
3814.81 1.326 0.0103203
3609.9 0.807644 0.00898083
3615.27 1.02716 0.0119868
3437.96 1.27551 0.0128374
3187.36 0.962691 0.0113318
3218.11 1.0447 0.0128588
2720.86 1.24143 0.014803
2934.85 1.30404 0.0158357
2470.1 1.07229 0.0160724
2553.58 0.871132 0.0124299
2571.76 1.51661 0.0206491
2294.31 1.13708 0.0147296
2379.25 1.10361 0.0171875
2241.77 1.05608 0.0157153
2137.92 0.984573 0.0160123
2112.36 1.06694 0.0187078
1954.95 0.865015 0.0158727
2010.6 1.04937 0.021107
1951.75 1.17197 0.020879
1759.27 0.79093 0.0149185
1827.34 1.2706 0.0258606
1652.26 1.1574 0.0232032
1689.66 1.12657 0.0234376
1709.84 1.21585 0.0241218
1594.61 1.43255 0.0292072
1571.49 1.00419 0.0209675
1457.13 1.17069 0.0248794
1446.27 0.914708 0.0206853
1255.82 1.05278 0.0279066
1256.14 1.34268 0.0340015
1306.94 0.940388 0.0263238
1312.63 1.0613 0.0291762
1320.69 1.1206 0.0311202
1245.72 1.1027 0.029233
1141.11 1.03495 0.0277601
1241.67 1.23303 0.0374217
1219.72 1.12235 0.0328089
1100.41 1.2462 0.03733
1079.28 1.0143 0.0336158
1024.34 1.05408 0.0347695
1028.26 0.963095 0.0314276
1032.06 1.51532 0.0513763
884.705 1.29329 0.0436369
945.285 1.0299 0.038514
945.27 0.847926 0.0294513
984.426 0.970882 0.035023
906.359 1.07165 0.0399395
922.393 1.35901 0.0532156
822.142 1.1707 0.0487101
846.052 1.3402 0.0540394
829.331 1.11584 0.0488829
808.438 1.07822 0.0473493
753.266 0.888806 0.0369161
750.774 1.01168 0.0445039
741.798 1.01694 0.0466341
724.892 1.10414 0.0533783
735.201 0.98373 0.049065
686.391 0.947433 0.0467716
691.469 1.02573 0.0526373
684.056 1.34919 0.0692691
651.664 1.07285 0.0513264
638.097 1.11544 0.0555089
650.346 1.09833 0.0601574
629.024 1.15755 0.0625242
629.147 1.20345 0.0630309
608.09 1.22484 0.0633893
599.62 1.44548 0.08217
575.816 0.783039 0.0473379
529.786 1.18689 0.0700377
528.58 1.08633 0.0650259
560.749 1.41012 0.0863021
564.557 1.11177 0.0685157
545.187 0.981489 0.0625684
513.117 1.08719 0.068657
516.519 0.803138 0.0528237
493.898 1.10362 0.0702336
500.232 0.999614 0.0678055
477.179 1.28468 0.0866427
443.095 1.12918 0.0776193
452.294 1.20345 0.0843524
449.415 0.997557 0.0712633
416.037 1.10757 0.0814139
443.264 1.04643 0.0816356
448.631 1.09929 0.079796
425.345 0.944339 0.0710362
422.608 1.22467 0.0899188
465.216 1.03648 0.0778628
410.546 0.941698 0.0717692
407.52 1.42218 0.112733
420.952 1.29081 0.103324
378.392 1.01005 0.0851357
399.688 1.04638 0.0888097
355.853 1.12859 0.0993256
377.575 1.13869 0.101349
380.294 1.02404 0.0931591
370.848 1.21139 0.105475
376.385 0.912672 0.0819908
348.853 1.19638 0.106776
362.201 1.06903 0.0969769
345.019 0.841863 0.0849624
361.242 1.13956 0.107736
339.006 0.919343 0.0937361
323.711 0.96556 0.0992103
319.496 1.14579 0.122241
314.86 1.10169 0.112545
324.343 1.04669 0.113193
319.047 1.14006 0.114226
312.311 1.19489 0.120711
311.574 1.18646 0.119691
308.589 1.49931 0.160266
284.483 1.33341 0.150702
303.669 1.44631 0.169146
290.381 1.10041 0.126515
292.977 1.30341 0.137417
282.746 1.25952 0.145946
297.501 1.01168 0.116808
283.385 1.13917 0.133072
263.579 0.936776 0.111126
273.412 1.17782 0.141555
266.973 1.0553 0.137068
247.33 1.18712 0.148575
264.963 1.08352 0.129687
248.197 1.04168 0.131301
260.209 0.975815 0.127589
249.371 1.56309 0.201932
251.594 1.17615 0.161368
258.685 1.08268 0.142291
233.878 1.21899 0.16746
248.608 1.22438 0.174063
231.309 1.33697 0.180409
227.868 0.854279 0.122285
231.869 1.07579 0.151268
226.704 1.00631 0.146437
225.276 1.21358 0.179801
227.406 1.40897 0.204638
215.878 1.0129 0.152791
221.846 1.12985 0.160024
204.146 1.13166 0.166967
211.783 1.13023 0.166367
228.788 1.19982 0.191102
205.466 1.19701 0.187293
206.613 0.80011 0.127715
199.499 0.806746 0.131682
204.821 0.981153 0.155366
198.587 0.887666 0.143592
210.118 1.50835 0.244546
188.291 1.13439 0.195206
207.389 1.12149 0.18872
188.799 1.30042 0.222964
194.338 1.09186 0.194781
183.56 1.16627 0.199834
186.89 0.961179 0.167564
190.935 0.993322 0.166164
179.825 1.40418 0.26235
166.14 0.926523 0.172388
179.719 1.31078 0.235192
186.779 1.05641 0.194262
163.906 1.16518 0.228141
170.716 1.14161 0.208923
176.628 1.2054 0.224674
164.22 0.833143 0.156788
158.718 0.892616 0.170721
167.181 0.99786 0.201219
180.426 1.06521 0.210196
156.432 0.817675 0.173155
175.223 1.49478 0.292265
166.94 1.27712 0.279453
158.551 1.41549 0.272578
147.995 1.29756 0.304332
151.807 1.44951 0.28857
166.122 1.27025 0.269983
147.05 1.06989 0.215102
151.887 1.32423 0.300019
144.286 1.41995 0.313851
149.413 1.02841 0.227101
142.786 1.29432 0.280879
144.662 1.19176 0.276953
147.891 1.50501 0.33079
135.291 1.05391 0.236248
140.54 1.20497 0.288516
143.4 1.07932 0.259142
144.045 0.908868 0.203706
148.585 1.16867 0.2703
136.712 1.0931 0.262456
140.976 1.16841 0.289143
130.066 1.26814 0.285177
131.677 1.35745 0.325631
138.276 0.965303 0.24738
124.653 1.02757 0.230752
127.002 1.03908 0.258342
122.811 0.953267 0.240104
124.934 1.25374 0.319251
125.13 1.23345 0.309697
127.353 0.965947 0.255528
123.733 1.05487 0.27203
125.183 1.1135 0.298379
124.991 1.50376 0.399879
129.463 1.09043 0.312986
124.654 1.04029 0.260467
127.12 1.05984 0.279273
127.82 1.45309 0.414529
124.963 1.36948 0.352638
117.782 1.19655 0.339379
118.659 1.31955 0.367044
110.695 1.01361 0.288743
110.615 1.16784 0.354277
114.659 1.25519 0.37283
122.628 1.29556 0.339886
112.573 1.21089 0.362266
121.905 1.36242 0.383532
109.714 1.41751 0.420906
108.534 0.813917 0.228168
99.4826 1.08818 0.326098
110.093 1.34575 0.410796
111.523 1.21464 0.36526
105.488 1.19468 0.408901
105.397 1.13077 0.336907
107.17 1.1828 0.345191
96.2916 1.22875 0.376702
106.749 1.29909 0.407976
102.637 1.50757 0.488666
107.346 1.28028 0.408446
103.274 0.980109 0.282271
100.054 1.08347 0.354929
96.1153 1.09306 0.3488
92.9002 1.20451 0.40256
94.7979 1.12578 0.367065
103.966 1.51399 0.497582
98.6175 1.25753 0.434881
89.413 1.0323 0.350798
97.8905 1.32641 0.45008
88.0046 0.834562 0.295452
92.0615 1.18852 0.402922
90.4501 1.26815 0.464589
96.9409 1.22963 0.428823
94.2758 1.03537 0.358291
89.7022 1.15842 0.425216
90.4657 1.40245 0.520081
90.5879 1.16483 0.408154
89.5848 0.954097 0.35248
88.354 1.51382 0.550549
91.2896 1.42649 0.529722
86.8035 1.23746 0.438095
92.6137 1.77308 0.634568
93.6219 1.38233 0.551912
80.4271 1.35509 0.51493
79.8199 1.35551 0.502928
82.1533 1.25432 0.471452
90.1864 1.65116 0.633576
85.2502 1.17821 0.448969
81.8888 1.26206 0.496583
85.2782 1.42565 0.560839
80.994 0.865047 0.336707
83.2936 1.30572 0.556629
83.648 1.14403 0.462264
75.9626 1.1769 0.486051
80.7677 1.28581 0.530113
80.6609 1.33153 0.521958
75.6491 1.26442 0.543991
72.3272 1.34761 0.537978
78.9996 1.31964 0.573031
73.9637 1.31221 0.540388
78.4591 0.799322 0.338609
71.3347 1.32869 0.573552
78.1104 1.28928 0.574319
74.6111 1.17827 0.528552
67.8455 1.58554 0.677913
75.0677 1.23476 0.558402
75.5313 1.78485 0.790649
75.1948 1.68214 0.722371
72.1964 1.26193 0.582909
74.6954 1.06793 0.521942
73.0576 1.30879 0.555909
73.3345 1.42257 0.664682
70.4062 1.15568 0.534309
66.6575 1.1982 0.563608
66.6728 0.977087 0.430938
68.3314 1.32608 0.632726
71.7151 1.30896 0.577232
68.6292 1.09079 0.504685
73.4527 1.57125 0.721413
63.901 1.01805 0.510309
67.1126 1.1535 0.579676
65.5905 0.820333 0.404194
66.6301 1.08901 0.544379
71.506 1.31311 0.592128
70.3624 1.20711 0.59955
64.4152 1.41809 0.732251
64.8905 1.38575 0.675538
76.6883 1.51823 0.745192
60.7215 1.25896 0.623419
65.3169 1.34491 0.714776
65.8995 1.34825 0.681478
61.6268 1.54434 0.758507
60.5324 0.905372 0.468011
62.2465 1.33185 0.734455
62.46 1.02398 0.487239
67.913 1.65516 0.859782
62.0503 1.51423 0.852698
58.544 1.52627 0.743276
59.9114 1.31187 0.725905
63.2593 1.22586 0.645161
59.6649 0.999355 0.56225
57.087 1.3399 0.688078
60.7411 1.51957 0.871159
57.6077 1.03273 0.543807
61.0239 1.48452 0.807165
58.2057 1.45154 0.752781
55.2837 1.51071 0.905931
59.3756 1.66791 0.947054
55.627 1.58983 0.813763
54.4379 1.47602 0.83819
56.6996 1.01218 0.588753
58.6637 1.05224 0.581147
57.5193 1.22488 0.719973
61.0598 1.47271 0.912053
55.2473 1.26464 0.780672
57.2665 1.24964 0.633536
57.6528 1.5744 0.983593
55.2343 1.52123 0.844574
54.5531 1.36081 0.804371
52.3217 1.52049 0.895592
59.5453 1.92597 1.1357
52.6145 1.37052 0.883698
52.1217 1.4618 0.863728
52.309 1.06673 0.661584
51.6602 1.3873 0.787085
51.3594 1.32184 0.777963
53.5822 1.63718 0.976119
51.7302 1.28733 0.834282
53.8714 1.55208 0.976352
47.9436 1.02118 0.578851
52.5542 1.30694 0.808193
48.2558 1.16299 0.793837
53.1331 1.66069 1.09631
43.4426 1.72636 1.14417
51.0638 1.1016 0.710414
49.6393 1.60927 1.08012
54.5538 1.34413 0.846957
48.8179 1.14273 0.69095
50.3113 1.58019 1.08268
49.5214 1.29938 0.928221
48.7753 1.68701 1.21104
52.669 1.77679 1.04723
48.8516 1.16119 0.78742
47.4722 1.464 1.00859
49.3873 0.970358 0.683767
48.0375 1.35924 0.932206
46.5516 1.30391 0.876406
46.7592 1.45225 0.99632
49.8023 1.7818 1.13805
47.9407 1.31348 0.949909
47.7156 1.50589 1.03697
45.5287 1.51144 1.03274
52.4572 1.60283 1.0806
46.869 1.10383 0.781528
44.4744 1.31255 0.927698
45.7025 1.27427 0.957294
47.0105 1.56457 1.13784
46.5703 1.80939 1.31677
42.6301 1.41942 1.03048
45.6106 1.51669 1.05347
42.152 1.05723 0.759174
44.9096 1.09422 0.856412
46.9529 1.37796 1.0272
43.7484 2.0454 1.53075
44.3391 1.72333 1.25384
44.7982 1.25822 0.904919
40.9334 1.46634 1.11968
43.5407 1.12572 0.893237
41.2679 1.5181 1.08888
42.637 1.38019 0.993748
41.4463 1.55046 1.29441
43.6609 1.34439 1.00279
44.0193 1.21001 0.936282
44.3616 1.31337 0.981575
37.7955 1.10166 0.912521
44.3572 1.20749 0.961606
35.7448 1.44433 1.08466
40.4461 1.38545 1.07526
39.7018 1.34958 1.03382
39.66 1.26936 1.00665
39.1112 1.26611 1.13751
42.4145 1.80614 1.4427
42.1843 1.40525 1.12156
42.4542 1.31861 1.11395
41.4465 1.71029 1.36774
41.3932 1.55429 1.31657
43.4505 1.24745 0.893116
41.6045 1.51558 1.20127
39.825 1.39209 1.23118
41.7849 1.88839 1.55965
38.3292 1.33126 1.06364
36.2557 1.68544 1.31244
41.0846 1.29435 1.13255
41.0155 1.68949 1.35455
38.6761 1.33977 1.09186
39.5509 1.14699 1.03112
40.1674 1.69402 1.48807
39.7487 1.39927 1.16807
37.7699 1.42792 1.2126
39.317 1.30767 1.29208
36.967 1.38832 1.19496
38.0971 1.38715 1.1121
35.4751 1.33224 1.24349
41.5239 1.45788 1.26055
40.5979 1.59698 1.43179
36.1226 1.53243 1.32645
33.7886 1.17511 1.02052
36.4657 1.8045 1.60089
37.8223 1.43507 1.21243
37.4164 1.13198 0.991148
36.6469 1.73501 1.57561
33.8853 1.08767 0.973689
33.9884 1.5799 1.59155
36.2401 1.6788 1.62525
37.344 1.55392 1.42625
39.428 1.72662 1.48305
36.0409 1.56509 1.35058
34.2542 1.45617 1.36053
35.9207 1.61546 1.59472
33.4878 1.15596 1.03775
32.576 1.79898 1.67872
35.3605 1.79256 1.49105
36.7651 1.44298 1.47022
33.6349 1.2043 1.13246
33.9281 1.23321 1.22817
35.3961 1.48804 1.40739
33.4973 1.54459 1.68358
33.4618 1.91497 1.69313
32.012 1.64105 1.60393
33.9262 1.44143 1.40767
34.407 1.63469 1.46087
31.4742 1.83472 1.86151
31.7274 1.24183 1.27677
31.6103 1.51977 1.49915
34.7805 1.43862 1.4499
32.2996 1.4186 1.35012
31.715 1.58961 1.65607
30.0541 1.68737 1.73502
31.7122 1.57639 1.66381
34.0172 1.31315 1.28947
31.8031 1.58658 1.5635
32.8378 1.49017 1.54679
32.272 1.82941 1.89357
34.3147 1.59709 1.53818
32.5345 1.91731 1.95223
31.1169 1.14156 1.23708
32.8371 1.51956 1.68179
30.7036 1.24545 1.3232
29.9673 1.6962 1.72705
32.9208 1.2558 1.19896
30.7461 1.49695 1.56013
30.9219 1.23626 1.27241
28.7127 1.45135 1.65737
31.8239 1.34291 1.32341
33.8125 1.53201 1.54453
30.0297 1.41109 1.73574
29.6736 1.83621 1.95721
29.4215 1.52453 1.57169
28.046 1.39074 1.55077
27.5871 1.72856 1.84933
29.9896 1.66495 2.02575
30.7728 1.89826 1.8941
29.7308 1.52165 1.62348
30.4436 1.76088 2.02368
30.3175 1.57151 1.80105
30.2638 1.34555 1.34558
31.759 1.51968 1.61907
28.5825 1.68517 2.11052
32.5933 1.80355 1.9577
28.7177 1.91804 2.20637
26.2575 1.74451 1.92631
28.8661 1.23335 1.4917
30.7525 1.30891 1.43011
29.1301 1.7431 1.75757
29.9241 1.2851 1.61787
28.5164 1.70713 1.72346
30.8081 1.70935 2.09488
27.4928 1.57813 1.77096
28.2922 1.75167 2.06144
29.3316 1.54761 1.73874
29.1696 1.84266 2.0788
28.2353 1.78949 2.04531
29.2037 1.65546 2.38614
29.2191 2.02121 2.25316
29.8293 2.25514 2.77865
27.129 1.55698 2.31307
27.2896 1.45297 1.58333
26.5529 1.51432 1.61115
31.0785 1.60668 1.92709
24.7464 1.49586 2.00061
29.5211 2.00018 2.1921
23.336 1.6591 2.10719
28.2901 1.44531 1.87763
25.4114 1.41176 1.85716
30.2874 1.94066 2.24212
25.5448 1.52898 1.88948
26.2983 1.43905 1.72167
25.699 2.22773 2.40883
26.1571 1.96742 2.52476
28.2384 1.44436 2.00323
27.607 1.57811 2.12093
23.2903 1.47913 1.83429
27.4206 1.54324 2.13334
26.014 2.14791 2.42204
26.5 1.61154 2.24734
24.9804 1.79969 2.29166
25.9118 1.98097 2.31686
26.3982 1.46761 1.74863
26.1067 1.61881 2.00867
24.3978 1.44371 1.99728
25.6747 1.32166 2.03506
25.304 2.1777 2.62687
25.3383 1.75568 2.1322
25.6045 1.42187 2.16506
23.603 1.52651 1.832
23.6472 1.68644 2.36291
25.3756 1.81992 2.13027
24.0343 1.60536 2.18695
23.7649 1.82139 2.48958
23.2635 1.26339 1.75508
23.4757 1.70121 2.46429
23.5846 1.71568 2.32429
26.465 1.86487 2.5019
25.6004 1.66777 2.09801
28.4712 2.22943 2.87973
22.0307 1.68491 1.96674
24.6157 1.54882 2.31785
25.1573 1.70072 1.96249
23.5363 1.45556 2.0548
22.9745 1.74812 1.9642
23.8807 2.3877 3.87936
24.9647 2.11816 3.0186
22.6062 2.21393 3.4352
22.4666 2.36492 3.20752
23.4661 2.24243 2.96318
25.7247 1.26148 1.74256
23.3068 1.79575 2.56682
26.6629 1.95163 2.43723
22.2175 1.6131 2.23044
22.2581 1.24935 2.10431
26.2589 1.89836 2.46552
21.8858 1.71608 2.62883
21.8778 1.69515 2.39889
20.2283 2.05187 2.73425
22.5204 1.80994 2.62828
22.1687 1.66528 2.42593
23.414 1.88664 3.12651
21.6985 2.08489 2.69746
22.3233 1.88452 2.77706
22.4075 2.20339 2.87907
22.4883 1.9816 2.79358
22.0687 1.60246 2.62476
22.2846 1.88596 2.76113
20.6986 1.67519 2.34085
20.6926 1.55149 2.11548
22.8507 1.58469 2.67534
19.3744 1.9978 2.78043
20.8056 1.37717 2.38322
23.6786 1.70151 2.18581
21.1723 1.52944 2.64419
23.8658 2.06533 3.04165
22.3493 1.6336 2.41269
22.1195 1.98257 3.02902
21.2136 1.62481 2.63289
23.4583 2.06459 2.90763
23.8059 1.94449 2.87733
18.9078 1.73715 2.86006
20.7322 1.59419 2.29666
21.6322 1.65794 2.81028
22.0869 2.06616 2.89417
19.0273 1.63234 2.62691
19.6304 2.01211 2.67808
22.3858 2.34083 3.48722
21.2892 1.61166 2.83646
19.8366 2.07389 2.9447
20.7667 1.72088 3.05584
22.148 2.35544 3.6232
20.5848 1.62236 2.70393
21.7127 1.76283 2.32475
20.5508 1.80214 3.08574
20.6844 1.54919 2.36353
19.3755 2.01608 3.53566
23.4584 2.22771 3.39396
21.2146 1.69192 2.89413
21.1292 1.82654 2.94121
21.1091 2.21016 3.66211
23.1089 1.8095 2.77709
23.1549 2.61981 3.83108
22.5823 2.05122 3.09287
20.0448 1.74155 2.86818
20.1436 1.71441 2.94195
20.1141 1.91318 3.25285
18.5634 1.48711 2.48069
20.0862 1.98309 2.9032
18.905 1.70191 2.89728
18.0709 1.52388 2.76792
19.6108 1.78048 3.48197
17.9069 2.17753 3.47171
22.9608 1.81456 2.5763
19.0511 1.22243 2.08491
19.5681 1.85578 2.83267
18.8178 1.82035 3.27563
20.8497 2.26221 4.08517
18.0703 2.03648 3.52658
19.7266 2.73 4.10118
18.3087 2.36005 4.47763
21.645 2.19182 2.96082
20.8554 2.21082 4.25556
19.62 1.75867 3.15581
17.8718 2.20059 3.77872
18.4136 2.15897 3.81074
19.2151 1.61069 2.78328
17.4416 1.53962 2.61008
19.2975 1.70951 3.24145
20.7123 1.80166 3.02841
20.6734 2.01948 3.19927
20.6761 2.50413 4.26754
20.6222 2.79062 5.50675
15.9718 2.23963 3.83497
15.9194 2.64256 4.09132
19.2706 2.00024 3.88975
19.2282 2.61721 4.20918
17.4954 1.49686 3.2736
18.4863 1.92775 2.99613
19.438 1.98931 3.81852
19.595 2.28573 4.13157
18.7044 2.08333 3.57425
18.1462 1.32126 2.64908
18.4559 2.23214 4.4297
17.9398 2.44808 3.6862
19.6848 2.09625 3.66757
19.0007 1.99167 3.86825
17.289 1.96752 3.64976
16.9229 2.32196 3.95996
17.6444 1.28125 2.61717
17.123 2.89416 4.63262
19.1215 1.73949 3.96145
17.9004 1.82306 3.12149
15.8081 1.67661 3.07245
19.1831 1.95449 3.29522
16.6677 2.53461 4.93801
19.0764 1.95959 3.41225
19.0721 2.42861 4.52644
18.4854 1.94827 3.27919
17.8122 1.91911 3.61098
15.6599 1.90765 3.8518
18.4218 1.32669 2.6379
17.1054 1.86567 3.64624
17.6423 2.15475 3.47306
18.9821 2.02329 3.8131
19.5713 1.90242 3.72918
17.5727 2.01625 3.65786
18.059 1.87057 3.58224
18.508 2.14648 3.8491
17.5999 2.59227 5.95181
16.9311 2.3743 4.64147
14.3367 2.32003 4.4273
15.6002 2.29458 3.71539
16.1031 1.82658 3.63159
15.3894 1.53141 2.99214
15.9452 2.29384 4.31442
16.6975 2.30795 3.83446
16.3065 1.7612 3.62098
18.432 1.54797 2.8464
17.3484 2.12622 4.04786
17.5441 1.99944 4.8202
15.6388 2.05434 3.70406
18.7721 4.15951 11.5739
16.285 3.35829 4.20572
17.3113 2.07714 4.32346
16.6216 2.40095 4.73205
14.3771 2.35098 4.79619
16.8541 2.4354 3.70809
18.5135 2.60937 4.68079
14.7923 1.97787 3.82048
16.9679 2.90057 5.72884
15.0513 2.09808 4.55718
17.5678 1.67135 2.93426
16.1733 1.93117 4.85133
14.8512 2.60348 4.62857
16.9081 2.23489 4.61693
16.8372 2.24547 4.11074
14.0951 1.55216 4.00567
17.394 1.92427 4.2778
17.0473 2.24478 4.39045
14.0299 2.9647 5.28763
15.7501 2.12803 5.16689
16.3363 2.81575 5.35493
16.6705 2.11258 4.51819
17.2077 1.80389 3.73608
18.6657 2.82431 5.98167
15.7204 2.21549 5.06325
19.4451 3.11827 6.07435
15.6722 2.44465 5.21338
16.2365 1.92633 4.6889
12.6421 2.58567 4.1266
14.5776 2.04119 3.98709
14.6093 2.12764 5.19716
17.7705 2.19011 3.75138
16.0689 2.74801 6.39068
14.5136 2.66805 5.23809
13.7177 1.65347 3.8981
15.2754 1.66271 3.55834
14.1705 2.36241 4.54041
14.3571 1.60979 3.38066
14.809 2.14684 4.26591
13.6025 2.82333 6.4148
14.9691 3.16072 6.70291
16.7241 2.73742 6.3449
17.0675 1.91747 3.9052
14.7794 2.35206 5.45869
14.939 2.61306 4.51366
15.4151 2.00055 4.74354
14.8191 2.20162 5.73666
17.4673 2.31246 3.67661
14.515 1.55686 3.40746
15.8111 2.50986 5.49186
15.7697 1.97717 4.29256
15.3271 1.8135 3.78821
13.3828 2.44863 5.22145
15.6754 1.74101 4.13627
16.0042 2.26669 4.93833
14.1831 1.95042 4.79999
15.7405 2.35194 5.24419
15.4986 2.87058 7.30022
13.6171 2.1475 4.08636
14.4347 2.62317 6.2365
17.1581 2.38936 4.25852
13.2339 2.2132 4.84596
15.5801 2.34871 5.60837
13.5735 2.40954 6.41989
15.8286 2.39733 4.47323
14.8001 1.67044 3.87053
14.9899 2.25077 5.44361
17.8058 2.72026 5.80687
15.0863 2.28105 4.97946
13.344 2.02102 3.81865
15.0649 2.44807 6.19075
15.5804 2.34359 5.13296
12.855 2.67792 5.59482
15.423 3.21237 8.51554
15.1288 2.16803 4.19664
13.9181 2.13317 4.66295
13.1489 2.04551 4.5509
14.9053 1.75243 4.44308
15.6315 2.32517 6.38453
18.6082 2.74429 5.09481
13.349 2.11307 5.3788
12.9831 2.37587 4.98374
13.4608 2.04676 4.55131
15.3717 2.45502 6.2877
15.1746 2.19386 4.65894
15.7558 2.57538 5.55361
15.8144 2.74336 6.33044
14.518 2.08462 5.19277
14.6099 2.66862 6.58936
13.5322 2.47422 5.485
12.6354 2.10174 4.54054
12.3263 3.05372 7.33976
14.1457 2.161 6.43245
16.0691 2.76178 4.98002
12.3856 2.66502 6.78693
16.2734 1.80148 4.19712
13.8298 2.93459 6.44824
13.631 2.35618 6.23029
13.9901 2.36508 5.31009
14.3738 2.77153 6.5943
15.1745 2.0044 5.23
15.1515 2.42599 5.49799
12.8191 1.88126 4.83481
15.7623 2.06724 5.55178
11.7054 2.19032 4.06532
10.9486 2.2778 5.43608
15.4478 2.92399 6.97371
13.2791 2.10063 5.81219
13.4902 2.32602 6.96394
15.9607 2.59723 5.98126
14.7427 3.21223 7.20133
14.1653 2.5836 5.38182
12.2964 2.76371 7.46109
12.0218 2.07235 6.36862
16.8193 2.53346 4.6947
13.4587 2.17871 5.21783
14.0472 2.2897 6.66137
14.7353 2.59245 5.0626
11.2745 2.58438 6.68173
13.8677 1.88304 4.96377
12.8612 3.02175 7.61961
15.5304 2.57345 6.72039
14.0605 2.48281 6.25529
13.8291 2.79979 6.73928
13.0345 2.37849 6.48023
12.9265 2.53001 6.13143
13.8694 1.74915 4.53507
11.4442 2.46913 5.76547
13.229 2.60867 6.27878
12.907 2.37711 6.46535
13.1895 2.19988 5.55006
12.8151 2.45335 8.54368
16.3368 2.98064 6.53804
15.0069 2.73957 6.24205
12.2168 2.01855 4.99604
12.9773 2.67819 7.41936
14.5405 3.04058 7.27996
13.9137 2.35094 6.35004
14.8618 2.33743 5.88316
12.4504 1.62927 4.47877
12.9527 2.57734 5.93497
11.486 2.80394 7.02733
15.8203 2.12514 5.18727
13.6123 2.05957 5.82941
12.5981 3.16457 7.94743
13.2875 1.86575 5.04841
13.5481 2.81376 8.00456
11.9671 3.17373 7.20685
13.7851 2.62398 7.03189
11.9932 3.16736 8.12911
12.3498 2.21216 6.50553
12.7662 3.23861 9.25303
14.2261 3.75466 7.33521
13.5453 2.45113 7.15019
14.1187 3.38253 9.262
12.1583 2.96113 8.21154
13.6822 2.91677 6.03392
13.2688 2.50821 6.24934
13.1867 2.26155 5.67567
12.5041 2.73414 7.4346
14.4516 2.84978 8.53713
14.0705 3.1347 7.25107
11.2185 2.61496 8.16154
13.0133 2.96662 6.40414
12.4444 2.48634 7.92459
9.67955 2.16684 5.38592
10.9389 2.6596 7.56197
12.5426 2.89061 7.0121
12.0988 2.37811 6.10533
12.7 3.20171 8.34758
13.3579 2.29528 6.1936
13.1099 2.67036 7.4638
14.2355 2.67608 6.896
13.2232 2.8935 7.24587
12.5874 2.64025 8.32748
13.0564 3.64741 8.86255
12.3214 2.22373 6.86753
12.9873 3.55277 11.2639
10.8641 2.33388 4.99219
12.6422 2.89241 7.93411
10.5348 2.167 5.97287
12.0689 2.73908 6.20122
14.3509 2.34181 6.32231
11.2078 2.62106 9.70771
15.3174 2.42009 6.18168
12.5817 2.53954 6.82855
12.8514 3.54138 8.18936
13.6455 3.08867 8.92848
11.4193 3.13407 8.41681
11.7819 2.62145 7.6639
13.7508 2.62163 6.55982
12.1923 2.91346 9.71356
11.0626 2.85163 6.69821
11.0281 2.70559 6.63551
11.3887 1.99488 6.57274
12.0496 2.70983 7.40381
13.0921 2.86307 7.73424
13.8268 2.40694 7.20064
12.6532 2.4968 7.24996
11.3545 1.94656 5.1452
11.8213 2.61004 7.23806
11.3516 3.09647 8.09287
13.849 2.82645 9.23233
10.0362 3.05114 9.40648
12.3085 3.23783 9.06212
11.2238 2.23358 6.50614
11.5615 2.53769 6.44211
10.2277 2.7532 9.36628
13.2363 2.75672 6.35746
13.3672 2.58376 8.59516
11.7669 2.16714 7.07929
13.5745 3.25326 7.75466
12.3072 2.91282 8.31569
12.5675 3.45711 11.0211
9.2863 3.01357 7.14408
11.3622 2.0363 8.28551
9.17872 3.14307 7.91287
11.7181 1.83239 4.96622
11.154 2.59697 7.06051
11.3825 2.4952 7.2599
13.4381 2.01352 7.05269
9.89307 3.13637 8.80645
11.0351 3.47273 9.1528
13.3425 2.3914 6.45636
12.8915 2.46405 7.88906
11.0916 2.41762 6.11357
11.093 2.02661 7.7317
13.0211 2.65404 7.32241
12.4949 3.58396 8.44678
12.165 2.84821 8.54905
9.83206 2.38601 8.03062
9.86125 3.33529 9.20378
12.9499 2.2769 7.40916
12.3293 2.56299 7.36818
12.5193 2.11012 6.89637
10.626 2.82457 6.79962
10.5164 2.19722 6.70882
11.3372 1.55165 5.4423
12.4852 3.13162 8.82029
11.457 3.74757 10.5093
12.0745 2.86879 6.64423
11.3581 2.51367 6.62624
11.1109 2.02108 9.32113
13.6045 3.06652 7.89069
11.5273 3.662 12.2311
10.6849 3.10415 9.01091
10.308 2.51129 8.91986
9.3863 2.87301 9.13507
10.9339 2.44538 8.51075
10.7871 3.28263 7.9649
10.2896 3.33605 9.55369
11.1034 2.72474 10.2984
8.69645 4.03479 9.43356
10.8388 1.90646 6.15789
9.97406 2.86121 7.7565
11.704 3.19191 11.2861
12.6269 2.96883 9.64335
11.3606 3.66033 8.90455
11.0576 2.95034 9.43289
11.4482 2.47554 8.67602
11.6477 2.00212 6.42486
10.4032 2.82399 9.30365
13.9204 3.62829 9.78541
10.7369 2.65404 6.22429
10.9399 2.40987 6.45889
10.4073 2.65881 9.43664
11.2319 3.24205 10.1029
9.58987 2.06052 7.29004
11.0805 3.96441 10.0756
10.2489 2.22622 7.64478
12.1051 2.32328 7.34711
9.55878 3.66389 10.2545
10.1535 2.97323 9.88311
11.7496 2.66374 12.0321
10.83 4.40592 9.96659
11.6425 2.97548 8.12066
9.28593 3.45258 10.6706
10.9251 2.72731 8.47135
12.4814 2.11107 7.5678
11.9585 3.2689 9.3094
11.2978 2.01882 6.60456
8.83157 3.11329 9.58587
11.247 2.4281 8.06587
12.645 4.48285 12.0297
10.8922 2.66845 11.0544
12.0156 3.29855 8.27801
9.90747 2.27312 7.78493
11.8593 3.60435 9.19049
11.1406 2.88371 9.47146
10.216 3.24843 11.5652
11.4447 2.673 8.80149
11.3811 2.8112 8.59782
10.0714 3.94169 16.5472
9.82978 3.44435 8.9864
11.4358 3.98957 11.6173
10.5058 2.90835 11.0072
9.82234 2.5497 7.49165
10.0107 2.89243 9.42861
9.51351 3.36516 11.5654
12.5441 4.59349 12.5356
12.2362 3.14475 9.25404
10.6174 3.09142 9.04494
10.8102 2.49888 10.5078
10.3867 2.5384 7.18839
9.81225 2.59655 9.26918
10.4141 2.67225 9.11536
9.30012 3.31019 10.8994
11.216 2.70321 7.91687
10.9021 3.754 11.7286
10.7169 3.26361 9.3674
11.8475 2.70073 8.66835
12.1699 2.80043 8.66538
9.96706 2.61279 7.69023
11.3393 2.2306 8.1631
12.0421 4.33514 14.8011
9.57308 2.62355 9.60946
10.5823 3.70239 11.1259
8.26219 2.92061 9.41752
9.99382 3.19956 8.21408
10.1514 2.62129 8.92155
8.82456 3.30984 10.9578
11.6203 2.24849 8.0589
10.765 2.31837 7.83296
10.577 2.8709 10.5582
10.0096 2.12528 8.10071
11.1354 2.78965 7.94899
11.0354 3.36003 9.10288
10.2437 2.35154 8.49655
11.6809 2.64726 8.78512
11.0735 2.71486 9.43808
11.4701 3.35186 10.0772
8.16176 2.85617 10.7539
10.0591 2.55979 8.46294
9.26251 2.99575 8.85847
10.3016 2.36087 8.27569
11.3671 2.66385 10.4999
12.6268 3.52883 10.0908
10.4133 4.104 14.1021
9.06889 2.73795 9.43299
10.6227 3.30938 11.6358
10.9494 3.68066 11.7499
9.2904 2.83592 9.25064
9.42353 4.01408 14.5228
12.8919 3.41685 10.5697
10.8189 3.26203 10.9609
9.64254 3.32382 9.50715
10.794 3.10747 11.4945
9.39167 3.75836 14.089
12.177 3.06555 7.64002
10.1718 2.74385 12.2893
12.4708 3.51707 7.41311
9.73349 2.78436 9.51544
10.4777 2.6287 9.77599
10.9088 3.03 12.7129
9.24455 4.7886 12.4591
9.99625 2.31386 8.00925
10.6167 3.07283 11.0559
10.4081 3.06887 10.3684
9.68774 2.48932 8.43248
10.0618 2.79363 10.2366
9.13533 4.13205 17.0805
8.78035 3.1443 8.27552
7.73279 3.29381 10.3104
9.75965 4.81223 15.8877
12.0625 3.68094 12.5869
12.155 2.48478 8.15433
10.0117 2.91701 10.4579
10.0412 3.16682 8.48443
8.42551 2.83326 10.1211
11.6242 4.25488 16.9832
11.2955 2.80152 9.97195
9.20019 3.41949 9.99623
10.0922 3.65577 13.2301
9.29645 2.68674 11.308
11.4025 2.77183 11.3799
11.7575 4.28101 10.6881
11.8185 3.33641 10.4775
10.1706 2.88608 11.1179
11.2363 3.0402 11.4589
11.0261 3.91814 12.1721
10.0775 4.11914 12.9627
9.73166 3.2404 15.6745
7.70564 4.25701 12.2026
10.653 3.44318 9.6842
9.90904 2.56037 9.44623
11.9642 3.52486 12.8703
10.2124 2.53488 10.1825
10.0913 2.67882 9.59858
7.68993 3.34996 14.6436
12.7636 3.18973 8.57836
9.98303 2.35089 8.74614
9.80809 3.63217 10.2299
9.77521 3.26303 14.0099
8.47156 3.71909 12.2366
10.0589 3.30749 11.0008
8.40182 3.61789 14.2729
10.6866 3.73832 12.7232
9.01294 3.86992 10.3895
10.2204 2.99079 12.7871
10.7198 3.40143 9.04974
10.4718 2.80907 10.6056
8.82058 2.85361 11.9279
10.863 3.74268 11.8672
10.2381 3.38831 12.0652
9.70497 2.73519 10.7606
11.8015 3.37412 14.2695
12.0019 3.95027 9.22854
9.41252 2.72378 11.3378
8.66857 2.83758 11.1619
11.2746 3.44279 12.8988
10.4793 3.9817 11.0636
7.61403 3.00242 10.8816
9.95516 3.199 15.9304
7.71496 4.80856 13.1494
8.70326 3.61352 13.6726
8.59395 3.4674 12.2326
11.2055 3.00574 7.36865
9.01604 2.6203 9.8281
9.64148 2.22018 8.8736
10.4145 2.53631 11.7058
9.12799 4.25544 15.3286
11.9844 3.78886 10.295
9.34172 3.41381 10.5169
9.18874 2.85766 14.3066
9.06334 3.32486 11.9987
9.88412 3.55287 15.1445
7.76128 4.919 15.3754
8.84094 3.5863 12.9014
10.6154 4.20321 14.4962
9.29344 4.04953 16.6433
9.84514 3.80093 10.0919
9.52435 4.12507 14.5727
9.21647 3.49993 7.87379
9.34469 2.66784 10.6767
10.2001 2.6601 12.1915
11.0734 2.73185 11.32
9.51747 3.91395 12.8664
8.67312 4.14783 17.2365
10.1831 4.03955 12.7954
9.57091 3.45467 16.2271
9.25896 5.44926 17.2289
9.99386 3.81021 19.4253
10.6816 5.57942 14.8734
8.80679 3.45772 15.1291
10.3031 3.84317 12.7944
7.59254 3.45517 13.8702
10.7414 3.89301 14.2536
10.2143 4.14519 12.678
10.4338 3.27861 14.1346
9.67568 4.19411 12.085
7.7141 3.60152 13.605
8.65635 4.28234 15.0398
9.68802 4.01872 13.8333
12.4618 3.53373 12.1842
10.7773 3.61711 15.0555
8.77559 3.25111 9.56402
9.34003 2.05109 9.65327
8.89115 2.99179 12.2524
8.5353 3.69855 16.1945
10.752 3.11279 11.4376
9.46158 3.32958 14.2451
12.5307 3.73426 14.2705
9.3197 2.98425 8.79103
9.18428 4.1799 12.6052
10.4105 3.54346 11.7808
9.44088 2.91246 13.6868
10.2417 3.11335 11.2388
9.50646 4.65472 15.2034
11.6471 4.44631 16.3884
11.0757 3.15799 13.9281
11.1285 5.38203 16.9743
9.92514 3.15568 12.2381
10.045 4.6261 19.1278
10.5759 4.29765 11.5321
9.04566 2.52591 8.42275
8.19646 4.02996 12.6408
11.1957 3.24812 16.1172
9.5586 5.08135 16.0068
9.23428 4.02308 21.1672
9.34963 3.7331 7.68055
9.85613 4.23778 14.7094
9.48807 2.8642 13.4433
7.22534 3.36387 9.42537
7.79472 2.97247 13.1269
9.98434 3.11433 12.5952
8.83542 2.77042 10.099
9.98228 2.67236 8.69946
8.52253 2.83519 9.6792
7.86797 2.94395 11.668
10.0466 3.35102 15.62
11.5596 5.01192 17.6752
9.82865 4.49466 15.0913
7.93409 3.06068 13.5614
8.92947 3.27639 13.0264
8.59632 4.00656 16.5743
11.65 3.91478 17.7895
12.2143 4.82777 10.2152
8.4299 3.65409 13.2704
8.1015 3.9708 11.6318
9.25277 2.44547 10.2021
9.34649 3.39573 15.9489
8.31675 3.37299 10.7305
8.29305 3.51079 14.1658
10.2078 4.09184 13.9328
8.22302 2.89096 13.3522
6.9633 3.25386 11.9461
9.94482 3.00986 10.735
9.77287 3.62689 12.4845
10.4397 3.47839 10.8993
8.68446 3.78252 17.3154
11.1396 3.1389 11.287
8.52074 2.75687 14.9317
8.88817 3.67354 10.8967
9.92815 3.80975 14.8525
8.03985 4.12498 14.3278
9.27142 3.63402 12.096
9.59035 3.37973 15.2625
8.97404 4.48224 16.2939
9.2288 3.01159 11.6699
10.985 3.82956 14.3659
9.75512 4.89765 16.5481
8.34398 2.8299 10.5992
8.98762 2.88363 13.9421
7.74058 3.58604 10.3987
9.42339 2.8752 11.0149
8.21257 2.92016 9.67405
10.557 2.72601 11.4517
9.21973 3.14648 14.4462
9.13259 3.34068 13.3611
8.71511 3.69851 11.4005
8.44121 3.7801 15.2406
9.38634 3.17099 12.3705
9.00387 3.73585 13.3305
9.08022 3.00702 17.6905
8.07559 4.38942 15.1266
8.57828 3.74526 13.7131
8.34493 2.95773 9.67525
9.01943 3.01899 11.4974
10.1947 3.40538 9.59511
8.28428 2.95299 15.2809
8.90408 3.80815 16.0662
7.43956 2.9115 12.8333
8.9888 2.56952 10.2732
8.79537 3.05952 9.55982
9.12629 3.08924 14.4154
9.43407 5.51379 19.7286
7.97265 3.21033 12.2063
8.53208 3.87535 14.6486
8.38652 3.5588 13.4654
9.30822 4.33032 15.3254
8.46249 2.53264 10.4906
8.2502 3.42237 11.4397
8.97689 3.20941 10.6585
7.78042 2.72666 11.7418
8.28382 3.81921 13.7829
10.134 3.81381 12.4276
8.48681 2.46334 11.7756
8.98421 2.71063 11.7186
9.90145 3.30592 14.0569
10.0289 4.56753 14.3988
8.40409 2.85793 11.4114
7.74449 4.43377 16.9339
8.83853 3.40868 15.5114
8.16819 3.79576 18.4654
7.43796 4.31528 16.0792
7.26256 3.8069 12.0259
8.77101 3.41381 12.9976
9.95293 2.23053 12.8361
8.79529 4.1104 12.3387
8.51154 2.7738 8.87061
9.08507 2.74619 9.04644
7.73873 3.24211 15.1137
7.67874 3.38099 10.9279
9.1023 3.41893 14.2045
8.19282 3.29638 14.128
8.00458 3.54165 16.0207
10.6242 3.38142 12.6642
8.32615 3.09102 14.5885
8.54113 3.39338 11.5417
9.49197 2.22903 12.9841
9.34768 4.60487 17.6124
10.2109 4.31989 11.6382
7.75981 3.47341 18.1124
10.0119 3.50687 10.9295
7.96012 3.43696 22.6898
8.07551 7.71775 19.944
9.4212 2.56821 10.0762
8.87066 2.80415 17.177
9.44106 4.57118 14.1541
8.8932 4.69557 13.8351
9.00934 2.45864 12.7038
7.56231 3.77426 14.8452
10.3966 3.37127 10.6769
9.96695 2.67245 10.0532
9.19303 3.60566 18.2588
7.96484 3.4173 13.1692
9.1605 3.61798 12.4287
9.56477 4.11346 16.5969
8.01986 4.2722 16.9016
8.36417 4.66919 18.2183
6.96405 3.39441 18.6623
9.96515 4.56662 12.1305
7.57656 3.69146 16.0548
10.72 5.12229 18.71
7.10575 3.41095 17.0345
8.37716 4.4073 16.377
8.8632 3.86418 16.7829
9.7912 4.11409 11.6505
7.00008 2.98521 14.5524
10.1213 3.91879 16.2087
6.78896 4.29111 17.1845
8.31195 3.5419 10.5458
7.92059 3.80773 17.5694
6.9018 3.56924 13.2152
8.09178 5.02183 14.5887
10.0875 2.82751 13.1632
9.90964 2.96607 9.50366
8.15876 2.52888 10.9982
8.49525 2.74661 14.1773
8.89981 3.21108 10.3412
8.4633 3.98395 19.2513
9.84725 3.06817 16.1809
7.76481 4.15781 13.411
7.83654 3.83227 12.6628
8.26451 4.31805 18.1685
8.58275 2.69239 10.4989
8.91801 3.27076 14.901
6.95376 3.61042 11.0629
8.95033 3.70589 16.0321
8.96497 2.61967 12.6313
7.93399 4.18974 15.5454
9.70577 4.26945 13.6855
9.41252 4.23649 16.3071
7.73115 2.84013 15.5533
7.06023 3.17133 13.3567
8.37109 4.15945 13.312
7.48853 3.52626 18.7294
9.95536 4.85105 12.5842
7.74278 3.71742 16.8887
8.0699 2.86989 13.3468
8.57389 3.8467 13.0398
8.39655 3.11632 13.5054
8.26764 3.49632 13.812
7.48915 3.08875 10.8192
7.82914 2.92106 13.1313
7.73943 2.62524 15.666
8.23858 4.21231 10.0247
8.26829 3.42225 13.1987
9.14432 2.79743 8.70212
8.59028 2.52486 14.387
10.2288 4.04383 15.1152
7.70815 3.25638 15.3304
6.52121 6.1985 20.0897
11.2774 3.98462 20.2703
10.1398 4.8607 13.7573
8.85653 3.23702 16.0282
8.47059 4.13316 14.8348
8.51914 3.58326 15.1067
10.0518 5.07132 17.1931
6.28856 3.23443 13.7428
9.28903 3.48696 16.4578
9.7089 5.05019 15.3697
8.65814 2.94393 12.9571
9.35763 3.6666 23.4561
10.0205 5.69026 11.4772
8.80536 3.00406 13.2815
9.98236 4.28684 14.6181
9.20461 3.37145 20.0535
8.29133 3.77714 8.20595
8.62531 2.57765 11.8286
8.86913 2.88577 12.3893
8.27702 2.9974 12.8398
9.59281 3.25665 10.5334
8.38981 3.00999 19.4733
8.47028 4.76136 12.549
9.61175 3.87203 14.7987
8.59403 2.58536 10.0159
8.39183 3.89641 18.1338
8.51811 3.42711 18.227
8.07239 4.79661 18.5734
8.04349 4.79644 13.5219
9.14833 2.86738 12.762
8.68404 3.54596 14.6691
9.11976 4.3799 18.7083
8.21596 3.14771 14.5781
9.28309 3.9157 14.3024
7.36302 4.67089 16.12
10.3859 4.3875 15.2056
8.31513 3.90923 16.9946
10.2412 3.72366 15.0924
9.22914 3.61382 16.1823
8.27592 4.17536 15.3478
7.74084 4.08733 16.6586
8.97821 4.02637 19.6734
9.30296 4.26674 12.4018
7.34821 3.49626 11.3716
9.45539 3.48124 17.4723
10.3939 4.33455 13.9596
9.1102 3.28216 15.6389
6.5049 4.49712 16.5519
9.4992 3.44586 10.8045
8.46383 3.71739 12.744
8.44438 2.81268 13.4946
10.0962 3.56542 11.0057
8.20551 3.12282 13.8435
7.80303 3.15696 15.8274
10.2755 3.27634 12.3254
7.59095 4.22859 18.573
9.06998 3.687 12.8002
8.58865 2.81779 14.5255
9.11393 4.71167 18.5819
9.24753 5.23676 18.68
10.1997 4.97145 20.7318
11.3355 3.69576 18.2272
9.28536 3.795 11.1248
9.90951 3.53844 14.6774
7.56817 3.76445 13.1911
8.13824 4.46762 17.0062
10.1043 3.29969 14.6604
9.06772 3.92449 19.3263
9.46212 3.31003 14.1941
8.53681 4.56196 18.8205
8.57132 3.86186 14.7087
9.20711 3.87076 15.4158
9.33078 3.90431 13.4585
8.91529 3.37185 16.4796
8.79343 4.86325 15.8423
10.047 4.11084 17.4218
9.00706 4.10912 20.1099
11.3311 0 0