# pn-170911/RbIIA-34-PTBB-1280-1959.psd
# Power spectrum* (dif=0,1,2) (really just |FT|^2)
# NOTE: only the first half! (symmetric)
# weeks: 1280-1959
# 7 clock-days, 1 excluded
# PSD: 1441
3388.47 0.358423 0.0225702
241262 3.86562 0.00549986
1.06579e+06 20.3535 0.00486327
169289 5.58369 0.00562502
124216 5.4378 0.00641942
52581.5 4.46429 0.00638673
18655.7 3.38757 0.006719
21984.3 6.45111 0.00644856
28245.8 6.03239 0.00869897
29417.1 10.9606 0.0124552
18079.1 8.61194 0.0114069
16726.7 9.73 0.013514
14306.6 6.9389 0.00866309
2929.37 5.19786 0.00871397
12827.6 8.80402 0.0135894
8124.19 5.4047 0.0151883
4612.32 3.59163 0.00678518
4255.18 4.15225 0.00490193
2625.31 2.82226 0.0090608
2598.61 3.42276 0.0143997
4717.7 5.78946 0.0204976
3375.07 6.71478 0.0184933
3996.6 8.89536 0.0259496
1715.7 2.70109 0.0112212
1966.5 4.30991 0.0209465
2720.06 7.67747 0.0383126
3149.28 8.99959 0.0291405
2875.33 12.2274 0.0354093
986.656 3.47075 0.0116614
2399.97 6.45884 0.0346408
1986.21 5.74638 0.0347541
882.197 4.08889 0.01823
1544.79 5.6801 0.0365382
1942.73 7.45866 0.0386088
778.392 3.37238 0.0315928
1130.54 6.51956 0.0451265
903.207 4.79188 0.0350862
968.819 5.1232 0.040356
451.533 4.99641 0.0398166
549.993 5.07129 0.0442587
972.71 8.50863 0.0759192
669.996 5.6638 0.0447094
873 4.95982 0.060252
785.905 4.2379 0.0363067
448.548 3.86179 0.0452698
680.172 3.84244 0.0411028
755.294 6.25628 0.0456172
442.796 3.82119 0.0604758
709.688 5.86092 0.0592105
270.892 3.87901 0.0496026
480.211 7.34881 0.107722
701.163 4.51871 0.062398
419.529 5.34621 0.069325
530.239 4.51949 0.0680798
230.161 4.25462 0.0598741
621.722 5.88819 0.105705
599.274 6.56859 0.109572
362.541 5.79662 0.0876589
350.766 3.79705 0.0593004
413.473 5.35671 0.106953
176.008 3.04788 0.0475335
332.88 5.43997 0.116845
491.38 10.922 0.175575
449.971 5.51594 0.0880404
315.057 3.91983 0.0804654
241.678 4.3694 0.10613
326.823 5.94213 0.130826
291.481 4.2818 0.108255
541.456 9.77013 0.193813
242.446 2.44703 0.0586424
319.793 4.98658 0.1288
383.948 6.40577 0.139581
122.654 3.07305 0.0803458
267.445 6.55119 0.19866
180.388 7.80359 0.213077
441.212 8.18521 0.219959
292.866 5.50855 0.163225
323.42 6.78008 0.190566
250.929 6.22994 0.196314
414.812 7.32949 0.223778
241.931 8.01736 0.250154
264.524 8.69212 0.304902
185.228 6.9481 0.224537
350.934 8.51784 0.265549
191.859 7.1545 0.228999
201.621 9.37196 0.349383
130.603 3.72071 0.127723
119.435 4.40412 0.182916
155.322 3.77207 0.164522
301.597 8.15064 0.268735
221.523 6.2453 0.279146
155.207 6.68919 0.25501
332.778 9.62777 0.409436
155.557 5.26225 0.240582
68.442 2.74499 0.118402
218.163 8.67093 0.387902
200.825 9.99639 0.50427
254.075 7.50068 0.330951
145.896 5.08833 0.237624
57.1535 2.06701 0.0837427
97.13 3.52786 0.151599
97.235 4.59648 0.264216
59.7565 2.74889 0.165236
148.095 6.35573 0.271903
167.83 6.8048 0.397202
100.067 4.80954 0.191228
161.778 9.45663 0.534816
176.597 6.25896 0.300542
172.961 8.14222 0.403227
119.248 4.0147 0.238253
51.8938 2.95944 0.173637
127.684 3.66466 0.222909
88.8496 7.3084 0.415557
155.505 6.79548 0.39006
143.784 5.74004 0.365707
96.3349 7.38536 0.471238
73.6519 3.24427 0.229058
54.2618 2.99135 0.247812
68.1828 3.62575 0.235933
96.8831 4.52217 0.27463
69.8456 6.05147 0.401962
164.504 8.87767 0.677217
42.4322 3.46192 0.235344
55.2164 3.40101 0.23419
46.9815 3.24801 0.230093
107.188 5.72036 0.414013
50.5268 2.35188 0.167204
140.116 8.67408 0.676525
27.6376 1.97249 0.178815
72.5238 3.82428 0.307012
157.172 9.67323 0.78716
70.9485 5.96963 0.569659
66.897 5.25592 0.403351
38.3296 1.70859 0.159978
57.0877 3.51262 0.300404
131.837 6.44911 0.50951
69.1437 4.30381 0.380458
81.9077 4.87263 0.447563
31.4201 1.7294 0.13545
101.455 5.44472 0.529918
35.9481 4.38882 0.445054
82.1015 6.52261 0.635045
90.2171 6.88156 0.674454
59.666 4.09277 0.448185
46.595 4.94692 0.488005
25.0054 2.02776 0.220221
182.783 15.9241 1.73863
124.972 12.9105 1.36855
73.8441 6.79896 0.626194
80.342 7.48126 0.886244
46.9509 4.13354 0.399957
56.51 5.68736 0.583809
109.118 14.8514 1.69163
102.481 8.61747 0.924507
97.4015 7.83988 0.898918
54.3055 3.5134 0.419163
42.9371 5.65832 0.625142
71.9641 7.13973 0.800001
51.5137 6.66283 0.804722
45.5804 4.79663 0.62515
47.344 5.54407 0.625178
49.2528 4.46635 0.558106
83.7874 9.27258 1.20065
109.409 9.68714 1.15188
75.6976 7.85171 0.915285
58.0084 8.64955 1.18937
33.8996 2.36687 0.263978
33.9475 4.27026 0.582289
89.3466 9.57065 1.25468
48.9739 6.13622 0.775777
91.64 13.1829 1.8454
62.3589 5.89757 0.877237
52.9653 6.37748 0.973788
73.515 7.13039 0.998502
44.2796 5.31848 0.771735
38.2079 6.16787 0.854874
53.7869 5.40587 0.892731
47.622 5.94924 0.882791
40.3109 6.35902 0.942348
74.8218 8.96013 1.3724
46.755 5.79725 0.865312
55.359 8.42235 1.35189
63.7129 7.7921 1.33729
72.4975 7.38682 1.22456
70.7027 9.99979 1.58418
64.0533 7.54136 1.25036
8.06648 1.97558 0.314657
27.3436 2.80801 0.45628
39.3769 6.41916 1.19834
93.9611 14.1424 2.33197
46.8014 5.79462 0.951372
69.162 8.70501 1.44287
27.3685 4.10625 0.756514
67.4878 6.57315 1.00334
48.0451 5.28614 1.00756
46.258 6.94318 1.37047
5.7839 1.0834 0.265173
17.7692 1.48458 0.377303
57.5887 9.82183 1.74527
57.0061 10.6855 1.93078
53.5569 9.84309 2.02529
69.7763 8.38798 1.47554
15.5634 3.13855 0.618383
70.3247 9.31791 1.55636
13.4251 2.90286 0.502489
50.5699 6.96236 1.39337
50.0442 5.43134 1.02213
36.3618 6.94391 1.52416
40.0857 7.34382 1.45734
65.4404 9.89702 2.13815
53.9896 10.3245 1.93101
25.8443 5.02245 1.02438
33.1671 5.96779 1.33887
36.5004 5.80455 1.47006
28.9286 6.05259 1.28993
40.5772 5.83493 1.25214
53.113 10.7743 2.53218
34.9748 5.78663 1.11505
44.4386 10.8761 2.29279
33.6638 10.1788 2.39706
44.2198 6.28619 1.24624
32.4892 5.30836 1.24677
26.3369 4.22909 0.924833
33.744 5.55852 1.32356
42.1598 6.50418 1.46616
15.395 3.62387 1.02734
41.8433 7.94969 1.8153
37.7858 7.64142 1.85058
41.823 7.49491 1.49483
21.8459 4.88856 1.32604
49.0983 9.66309 2.37679
36.7087 6.90885 1.83308
42.5157 7.40042 1.65456
25.4599 7.12816 1.70537
26.6616 5.41028 1.5923
42.3053 10.6954 2.58929
33.4595 12.3104 3.28306
21.625 2.71428 0.721011
24.8966 8.59605 2.00179
19.2384 2.72663 0.661469
18.4948 5.49778 1.4123
28.1043 6.91697 1.98308
57.217 12.6538 3.21311
39.1503 9.19199 2.62449
18.942 7.1071 2.23872
30.0007 5.16555 1.22637
14.5089 5.70886 1.7951
23.9394 8.19893 2.62517
31.4444 7.04833 1.78334
16.2675 4.56369 1.43996
42.4406 8.83736 2.36585
39.573 7.26247 1.74591
32.4841 8.50509 2.75778
37.1139 9.43275 2.78339
22.4963 6.0921 1.57169
25.6262 6.66859 2.18875
19.7647 5.77699 2.08956
24.5674 6.30466 1.96677
40.9933 12.4897 3.57378
20.1846 7.55431 2.54283
31.3646 6.9381 2.02335
17.0771 3.77588 0.970243
19.9536 4.52065 1.41934
35.4258 9.82352 3.27974
37.0414 9.90883 3.34156
22.4844 7.92517 2.72317
28.952 7.64848 2.23401
38.4109 8.42891 2.80499
10.8644 4.37235 1.44646
12.0597 4.30166 1.73338
52.9985 16.1642 5.35459
33.5768 8.55223 2.6478
14.3214 6.23537 2.16086
29.6587 8.07302 2.66886
37.6755 10.1685 3.67864
25.3756 9.45296 3.53474
27.5819 5.65912 1.70149
22.8838 5.61599 2.14579
24.5668 7.01322 2.54774
27.2573 10.5238 3.57056
29.0972 6.78213 2.38525
23.5828 8.33973 3.29274
14.5314 7.32052 3.2968
18.3089 5.4316 2.22147
45.2466 11.1287 4.17551
26.7234 8.67623 3.10824
31.4525 7.08588 2.05999
27.6179 6.86036 2.7087
48.3741 14.7982 5.62555
14.6887 6.10614 2.38604
34.3055 10.3481 4.54447
27.7671 13.5428 4.55142
28.2098 7.51781 2.66228
19.8588 5.6184 2.48277
20.3567 7.6768 2.93835
11.7849 4.67149 1.70367
23.2045 8.50549 4.09047
15.7054 3.69266 1.28082
38.0468 11.0611 3.52707
27.2237 9.47229 4.20189
26.9855 8.9128 3.28814
21.7174 5.52819 2.27505
44.7302 16.615 7.45913
14.5591 5.5849 2.33187
26.0707 7.95854 3.00889
36.3388 16.3087 7.70586
16.1658 6.23738 2.27258
29.7032 8.39569 3.37662
16.9931 4.80285 2.22103
16.7037 8.86838 4.01609
21.0767 6.51788 2.62125
9.52261 2.84191 1.30105
12.4352 4.72101 2.35737
19.2556 5.03405 1.95213
18.7955 6.64581 3.11807
19.4251 8.09504 3.41068
25.0933 7.42121 3.11921
17.3335 6.70729 3.25033
27.7453 13.2194 5.70741
23.2335 13.4835 7.08598
8.69988 7.40993 4.49885
24.2351 6.58193 2.51293
18.8912 6.8238 3.27473
17.1772 10.8643 5.61941
9.61355 4.02305 2.18653
19.5961 7.44278 4.05602
30.0458 8.74437 3.10779
14.0494 6.07787 3.04325
29.616 11.6997 6.11232
17.6202 7.49152 3.6452
27.444 11.1507 5.27856
14.3708 4.20599 2.51213
13.1003 9.18022 5.48771
28.6018 11.8968 4.82873
22.2589 7.02097 4.1434
14.8746 6.56428 2.80501
20.4982 12.2374 6.61722
14.1135 6.067 3.07727
26.1005 11.5885 5.88742
23.3505 8.90292 4.52209
19.2555 9.54545 5.88113
9.1525 4.52507 2.51669
15.7755 5.19698 2.81695
17.3652 9.35352 5.84015
21.7078 8.13201 3.60649
14.9635 6.41786 3.09945
12.8549 6.61319 3.00532
23.3936 11.9453 8.35673
14.9556 7.26059 3.33524
12.2314 6.09852 2.84152
5.2234 5.48827 3.00417
22.641 10.7386 5.65292
15.5076 9.15809 4.40933
13.3783 8.31202 4.42056
15.4168 9.52744 5.47963
9.85407 4.11541 2.74929
14.0139 7.50379 3.59272
10.4861 6.58156 3.62156
11.4757 8.78486 5.61671
7.80858 3.68832 2.66206
15.5366 8.37954 5.55706
12.8994 8.68622 4.69582
18.5524 9.03213 5.78987
13.5791 6.28625 2.99835
13.2861 8.59553 5.34677
11.8681 5.90752 3.9438
20.6474 9.01459 5.49819
21.2041 7.00853 3.74252
17.3695 11.0992 6.72691
8.94036 3.99965 2.96382
18.5202 9.2849 5.27203
10.4386 5.48215 3.72545
12.491 8.3649 5.61052
7.23752 4.6291 2.84434
11.5242 5.77457 5.00347
20.5567 11.4456 5.63577
13.8542 12.8598 8.51151
17.143 8.18265 5.33858
13.3854 5.15868 3.52146
5.46448 2.49333 2.13413
12.4057 5.74129 2.76234
18.8388 11.3757 8.48552
17.1234 7.68631 4.62518
12.4065 5.66333 3.47914
10.7603 5.17734 3.55147
10.4565 7.00806 4.16884
7.7031 3.62985 1.98472
5.74296 4.25642 3.08516
7.07283 5.18537 3.552
4.75059 3.24381 2.75673
16.4449 8.15856 5.79419
10.8811 4.34282 2.63266
9.6491 5.39645 3.80148
13.6266 6.60103 4.89685
22.0144 11.6072 7.07593
12.8823 8.19553 6.60445
5.87615 1.93814 1.26669
11.7075 9.73522 9.29328
23.5523 14.1604 7.4428
9.54588 6.70693 5.26805
18.0631 10.1576 6.94157
9.17784 5.47849 3.79596
10.5664 6.70627 4.25467
5.40218 6.66119 5.60367
10.2521 4.88556 3.08857
5.71166 3.31357 2.52104
7.55042 6.50194 5.37086
12.0973 9.11054 7.46961
17.1254 14.1229 10.3633
14.085 6.30664 3.87888
5.17265 4.6712 3.48285
8.99544 6.58576 4.96748
4.0492 3.11353 2.54496
8.04503 5.45523 4.48074
19.2847 11.5121 7.89831
11.2769 6.93001 4.71229
5.25152 4.88367 4.2472
5.43753 5.05367 4.92887
5.40534 3.50235 3.94841
10.0404 8.91487 7.61418
20.1071 9.11636 5.55858
15.1928 9.84721 7.49447
6.45086 3.65113 2.16247
6.77396 5.91268 5.04883
11.9508 9.49603 7.91131
9.77237 7.61249 7.23146
14.3684 7.37701 5.11191
5.54252 4.80662 5.73441
12.8597 7.64203 5.01627
8.41733 4.00714 3.09726
19.4909 12.7305 9.69626
12.2427 10.1982 10.2373
12.7009 7.33046 5.40473
7.32671 6.25573 5.80632
12.5546 8.08463 6.87579
13.4749 8.93409 7.8599
7.24899 4.55027 3.27573
9.38465 5.70862 4.9458
8.96706 4.80633 4.00769
8.19392 7.78412 7.71466
13.0161 10.6836 7.91515
10.3172 5.86864 4.84609
7.57158 2.73033 2.07364
14.7775 11.5348 10.9203
21.3356 13.7114 10.901
5.92061 7.12287 6.48844
11.6889 7.17924 6.55514
12.7881 9.64985 9.2322
16.7321 13.7679 13.0155
9.43384 5.28054 4.48111
8.04647 7.86165 7.56213
8.35257 6.98693 4.76141
6.14297 7.52375 7.62927
8.2488 6.12817 4.32476
7.13058 6.48049 6.85582
14.4878 9.46972 7.46402
4.96045 4.28942 4.18287
8.45862 5.88447 5.82705
10.059 7.45366 6.29187
10.089 9.18008 10.4763
9.07706 6.41008 3.62545
5.97272 6.05096 6.736
8.9953 7.39518 5.85049
5.00172 2.92789 2.5166
8.56317 8.39558 6.63257
5.7202 8.97219 9.08303
13.0049 9.50606 7.96029
4.10543 6.56829 7.85518
4.60311 1.50096 1.57305
11.8232 10.5408 11.6291
16.8984 9.62149 6.71897
8.4177 6.28961 5.91266
8.33423 5.97213 6.28705
9.58789 9.79348 8.60335
5.00696 7.09278 9.29364
5.41242 4.37579 5.55472
14.7022 14.1382 13.571
7.53727 5.56701 6.3034
13.5104 10.7097 9.31109
9.30172 5.32479 4.46608
7.96488 8.29679 8.25911
6.97503 4.96423 4.33119
11.3109 10.3842 11.1862
7.01571 4.55854 3.50406
9.37318 8.36779 8.68341
6.40723 7.20185 7.93266
13.1491 9.50705 9.64651
4.5049 4.23015 6.38544
5.30096 6.89068 8.83075
12.6854 7.55692 4.77497
5.56498 6.87019 6.1116
9.43963 13.1215 12.4511
9.392 10.0878 11.6259
6.88093 6.31784 5.54684
6.06608 6.77062 7.69085
6.70085 4.81539 3.91422
3.77023 8.01293 10.9389
14.6171 9.33389 6.71151
5.44918 6.22561 8.43173
9.05052 8.0556 8.91303
6.25369 5.6142 5.3225
5.52403 3.55501 3.56606
7.7594 8.03138 9.02592
8.01191 5.06108 4.40184
10.1995 11.8876 14.1097
3.83211 4.4043 6.67699
2.98792 3.91629 5.83719
9.43082 6.04706 6.29426
4.67107 5.39465 7.27221
8.95766 5.39532 5.78186
6.98227 7.96183 6.58097
3.60936 6.73695 7.68995
6.7909 5.15524 5.91774
6.7818 6.25745 8.68506
9.57532 9.421 11.0225
11.0429 5.9757 4.29954
5.79925 5.83578 5.94426
5.0175 5.35994 6.29901
5.99144 9.46813 12.7302
15.8702 11.0685 9.81337
9.58884 12.4651 14.1603
7.37048 6.77187 7.4911
6.93068 5.7344 8.51886
5.3385 3.37813 3.40073
7.3153 8.13277 8.19197
4.68457 8.4144 12.1861
7.13954 5.49226 10.5178
9.80243 8.66105 6.08129
4.08082 5.43151 6.38207
7.31956 7.41122 8.35456
2.90483 3.51349 4.19175
4.31644 7.45092 10.8016
6.00947 6.13747 12.2974
9.60377 7.21664 7.64319
11.9189 12.1095 13.7177
6.3902 4.9531 5.78785
11.5952 14.0835 17.4683
2.81729 3.18207 4.66114
6.36474 8.14764 7.83087
3.35237 3.4384 4.891
8.2407 8.15047 9.41114
6.72327 7.17088 9.8025
6.09045 3.08594 3.41144
6.73029 4.45708 5.45116
10.5778 9.11758 10.2057
4.23092 5.30415 6.88235
6.17135 7.08331 11.2765
8.27223 10.561 13.2184
4.94151 3.16287 4.8814
9.45755 10.1697 10.2887
5.01822 4.33889 5.44515
7.1401 13.054 17.4105
5.41986 3.15233 4.2422
3.51967 4.31156 5.23367
7.32687 6.43168 7.87985
8.71845 7.17735 7.34781
4.03015 5.41989 8.75278
4.71119 6.43603 7.48316
8.52112 9.02231 10.0173
5.49636 6.06521 7.89185
7.21331 8.44038 13.1146
5.90656 8.16673 8.18737
3.45786 4.59225 7.65174
2.95573 5.63286 10.4158
7.16535 5.22846 5.42356
4.48055 6.54302 9.71959
6.44365 5.77239 7.24436
9.84698 7.50642 8.50144
6.65933 6.53648 8.72493
4.71187 5.15033 4.86141
5.25297 6.36912 9.2592
6.77528 9.51751 12.2695
4.92759 5.01555 8.50768
2.77045 2.6029 3.13544
7.69592 13.6237 19.6834
6.85334 5.07701 7.48784
8.70473 8.81829 9.51622
3.52838 4.02362 4.56005
7.4297 10.8802 16.2418
6.31864 8.00169 9.54257
3.98283 6.43051 10.9028
7.66669 7.64501 13.29
7.59065 8.05705 7.50317
2.41694 4.64355 9.11777
5.53348 4.6913 5.41016
5.18896 3.67281 4.69644
5.89458 7.11894 10.2901
5.24324 4.39752 4.7481
4.35607 3.81082 6.56503
6.40283 10.4707 11.9967
5.46341 8.30203 14.3363
5.16826 9.3062 16.69
4.74192 3.54404 5.1354
5.521 6.76317 8.1614
4.54787 7.20425 13.8703
6.23218 6.07701 6.15163
5.02282 7.28701 9.26373
3.06008 4.27118 7.88578
3.25285 4.53271 5.10346
2.58769 3.8284 7.69769
9.04725 12.2136 17.6482
5.65167 9.00474 14.0446
7.4771 6.02343 8.71671
8.06709 7.84232 10.5094
6.48376 7.08281 9.86859
4.3506 3.92971 6.68357
3.12143 3.97596 6.85665
3.99671 5.71307 8.33728
5.85035 7.84529 10.5981
2.69457 3.74318 5.97772
1.87617 4.78035 6.7395
3.66086 3.32986 6.14663
5.72499 9.4159 14.8617
5.16505 7.23904 11.1391
4.63155 4.36001 5.9846
3.96717 6.6595 14.3177
7.0815 7.12363 7.27363
3.0272 6.85162 12.0666
5.59792 7.5718 9.87379
3.4523 6.71834 11.5898
4.64981 4.25075 4.62984
2.94079 4.39537 6.03278
4.05936 9.49318 17.5479
7.23185 10.0303 11.7003
5.07188 8.62885 15.334
5.92361 14.5222 19.5369
5.20922 10.1623 19.1058
7.04452 10.2019 14.772
4.03354 8.01642 19.3618
7.14296 4.62382 6.55253
5.62098 6.26287 12.6661
6.69668 9.0293 10.969
4.15298 4.25396 7.2849
2.7652 5.19342 7.97254
4.28581 11.044 22.7287
9.0553 7.78559 12.3457
7.2375 5.80937 6.14668
3.62434 3.16948 5.51198
4.77474 7.04006 10.1678
4.54651 6.65657 12.0225
5.43789 5.47566 9.03868
3.48296 2.64183 3.80044
2.54928 3.26278 7.62087
2.7023 3.74838 6.50202
7.19437 13.4834 21.3436
5.22828 4.86798 9.16799
6.77715 8.43354 12.3767
5.84292 8.02867 13.2848
6.76308 9.27067 13.9737
3.36231 6.05724 9.55982
4.87579 5.42109 11.5925
6.08253 8.25006 11.8132
2.61338 4.8135 11.0778
5.48087 7.28128 11.0819
6.63268 8.97714 15.6854
7.15729 6.52688 8.79277
3.35718 3.8791 7.48014
4.67084 7.96968 15.8611
4.064 4.45261 5.18894
3.03532 4.36408 9.72336
6.83108 9.41968 14.504
2.54511 6.45453 14.5131
8.36771 9.19005 15.0187
5.35027 7.22452 8.21753
4.71347 7.64437 13.5605
4.17401 6.12428 13.2305
3.30932 4.44635 7.18327
7.49632 9.74001 17.4938
4.01867 7.38417 18.0243
7.71264 10.6501 13.3884
1.37257 1.98071 2.71023
3.52018 6.93846 12.4902
7.34223 16.8986 30.6011
6.68927 10.2338 14.745
2.75547 3.59242 6.27092
3.5279 6.20665 12.1955
2.92401 4.73643 7.99985
3.0077 10.0599 23.5185
4.65129 6.4264 13.0466
6.31535 10.4012 20.778
3.39294 5.80629 15.1377
5.77094 6.59196 6.64128
3.61791 6.24497 10.1609
3.08441 4.65464 9.67326
2.38542 6.29895 12.5038
2.5988 3.21878 8.26835
3.79327 3.95153 10.5548
6.45538 11.5447 20.6959
5.20263 5.42118 8.68897
6.7262 9.0156 12.5075
4.29812 10.7014 22.5168
5.67374 6.01016 12.4298
3.37109 4.28464 7.92791
4.83525 5.4065 6.20362
3.06196 4.16816 6.41931
5.62517 11.0017 20.1374
3.21316 3.19912 7.69196
6.3315 8.10962 13.0342
2.98757 4.04955 8.10767
4.44516 6.84651 11.7108
4.31077 7.7794 17.2964
5.49756 8.56383 16.2167
2.73908 4.04192 7.26669
1.80164 5.57875 15.4799
6.31803 10.6306 11.9817
2.69961 6.93641 19.5208
5.92806 11.409 21.0071
6.27513 7.24804 10.5904
5.71053 8.06392 14.1419
1.82658 3.32134 9.40721
5.50758 8.13592 14.8487
4.44412 10.5329 20.0554
3.28218 4.05276 3.95294
5.05395 16.9403 37.0821
5.91819 5.1051 11.5664
6.54519 8.92135 16.9719
4.62139 8.62032 14.6795
3.75812 9.13102 20.4344
2.30197 5.38819 7.74373
2.02434 3.12549 6.64733
4.20893 8.0586 17.747
3.66249 4.77953 8.89563
2.9442 8.14475 22.8838
6.68535 8.80394 11.3785
1.76756 5.42699 19.6504
5.9146 9.37071 12.943
4.22955 6.71002 8.86701
0.7347 4.18865 14.6061
5.54746 8.05124 15.7327
3.81462 4.65994 10.7979
2.95999 8.10692 16.0206
4.10022 6.67289 11.7729
4.66196 7.40202 15.1757
4.3764 6.89769 16.2362
3.72343 8.9061 20.594
4.71713 5.90009 9.25372
3.46361 7.70439 11.6699
3.05158 5.83298 11.2106
2.61179 4.98202 10.9378
2.40821 3.93428 10.4291
4.07776 5.09463 14.4747
3.78459 10.5014 19.4189
5.08077 9.18789 14.7107
4.31239 7.57851 16.3412
4.43031 6.01592 14.1926
3.9854 6.47788 15.3062
4.84924 6.80783 14.2964
4.96856 6.16414 9.86103
3.55098 6.33445 13.6088
2.96247 8.35862 16.4875
3.51655 5.74141 11.2556
2.59125 5.78492 15.3339
3.5987 5.31618 11.6948
3.90513 6.30203 13.5952
1.9305 4.10962 7.30303
1.20823 4.19972 11.1069
3.28618 8.36224 20.3387
3.73815 4.60388 9.28369
3.88448 7.38629 17.1849
5.16493 7.58619 12.6479
3.42952 10.2035 24.415
8.25528 10.1885 19.2193
1.97127 3.81822 8.34957
1.92042 3.44185 6.81838
2.96558 10.0617 18.5198
2.50112 6.26146 15.5986
3.06002 5.2398 15.4476
6.08672 8.20445 11.1523
3.05851 7.96929 20.309
2.22467 1.42664 4.6149
1.84079 1.84631 7.94324
4.72888 4.97932 7.43819
2.11655 4.32869 9.75044
2.03059 4.18783 12.7738
3.82605 4.14701 9.61877
3.84809 7.80903 17.7321
2.39745 5.89789 18.898
5.04541 4.82691 13.2554
5.78138 10.8881 16.9878
3.46768 7.66522 21.3105
6.55311 10.1679 17.8145
2.8176 6.04958 13.0681
3.73048 6.32644 13.2773
4.05419 8.28112 21.8447
4.71041 12.4762 26.0316
3.50882 4.59903 13.0282
3.47644 7.48938 16.5668
2.93492 12.8978 34.8753
6.15521 7.96367 14.3646
2.03609 6.95901 21.7057
4.55581 5.42069 12.4313
3.56988 4.76137 9.9087
3.15356 3.49234 9.41847
2.00146 2.73496 11.498
4.92577 10.5964 14.4077
3.59585 9.85185 24.9288
3.6098 4.84356 11.2264
3.77701 8.38392 14.2213
1.63845 2.40125 9.65526
3.32368 5.37154 11.9146
2.66392 4.68087 15.4034
4.54288 11.4415 23.976
2.9011 5.78163 13.8572
3.61522 5.28014 16.9707
6.08977 11.3352 22.4665
3.38373 6.36737 15.7695
6.24178 10.9445 23.0275
1.51193 3.28662 8.48765
1.33554 6.32043 19.7224
3.34796 6.61886 8.92696
1.84886 7.16442 18.7833
1.98792 2.14484 14.2821
5.41215 7.84156 14.4636
2.6086 4.58114 9.15748
2.89715 6.97864 25.2436
5.88405 11.7888 19.6975
4.24328 8.31701 19.1729
4.66258 12.9146 27.9098
1.86706 2.02614 9.26566
2.09665 7.31716 15.4767
2.23194 5.21944 12.3818
3.0814 11.0173 25.874
4.15374 7.6129 18.1959
2.06071 6.49065 15.6116
2.73675 5.68798 19.379
4.43079 6.83821 15.7217
3.55773 7.30845 12.3343
3.24844 8.61401 22.2551
2.09564 2.08709 12.1994
4.1181 9.60068 26.1474
3.62627 4.90568 5.51214
1.71782 4.96219 11.6746
2.94289 8.52083 16.5291
2.26789 6.61226 18.3643
5.4615 11.8659 24.7324
3.15243 5.56325 13.9721
2.66677 4.00955 10.5244
2.04739 4.59925 12.4522
2.38907 5.49395 12.5986
2.3483 3.58741 7.02006
1.39621 3.14965 11.5947
2.65653 3.66673 8.79448
2.57277 6.98602 15.3726
3.23122 4.92685 11.6451
2.97772 8.86083 26.7957
4.42852 5.7399 14.4695
2.75918 8.59577 28.5313
3.60822 2.28426 6.51422
3.28305 6.30946 13.4718
3.10401 7.28537 19.8274
4.59076 11.2574 26.2176
3.85055 5.59832 13.1614
2.85519 6.40627 14.8119
3.48012 12.2333 30.8353
6.75125 14.2349 32.0643
3.78043 8.58199 21.6823
1.91447 4.85435 14.3021
2.27952 3.81569 13.3428
2.92432 4.09355 10.981
2.24207 4.65176 17.3352
3.35125 5.17619 8.75583
2.36293 5.91141 22.7774
4.03154 10.3909 25.8918
4.89895 8.81141 15.1163
2.92415 5.80976 19.0588
3.35967 6.42768 18.0919
3.73208 6.8934 15.9267
4.15231 13.3362 37.7699
4.7175 6.10085 21.011
5.06076 9.26964 17.6024
2.49916 7.2378 26.5175
4.34608 5.76773 13.5996
1.74804 4.37841 17.8634
4.03227 6.36227 14.511
3.78566 10.7174 17.2122
2.13549 7.61132 21.2519
2.28228 6.06911 14.7396
2.23917 3.76246 12.3318
2.06358 4.10865 15.2059
4.5364 8.6236 15.0641
1.96485 2.94803 8.71165
1.51361 2.01954 5.81626
2.47504 8.55876 28.7584
4.22792 7.78168 17.9791
3.41424 5.5971 14.2881
3.37214 6.46012 20.4684
4.34463 12.3151 27.0044
3.43803 4.44933 10.0189
2.58802 8.78994 32.9875
3.65093 12.4141 39.9853
4.24378 4.78347 15.0197
6.15031 9.17606 15.5376
3.11163 9.25215 20.5342
2.35819 6.35925 25.4158
5.25732 9.61655 14.8496
2.5309 7.45326 24.2478
2.31616 5.83648 15.3528
1.87487 6.87966 20.4614
3.11675 5.95684 11.8412
1.18638 4.19126 16.2334
2.41211 5.47342 26.099
3.79354 7.71166 13.1054
3.2236 10.4679 28.8665
2.79705 9.28534 30.0226
3.67132 7.05378 16.1884
2.87951 8.06269 11.3835
2.06138 6.42775 18.9738
1.9484 9.8652 29.0433
4.29943 9.29578 26.929
2.3734 4.14028 11.3086
1.64983 5.25071 15.4079
2.33539 3.5937 12.4564
3.43836 6.11451 29.6306
5.8214 10.4748 13.3932
1.31781 3.5856 10.3691
1.82867 4.73991 15.9651
1.61214 4.39201 17.0002
2.9845 2.69432 6.65198
2.82995 7.69572 22.1446
4.57152 6.67393 9.79822
2.4455 8.07529 26.9945
2.43198 6.14432 24.4163
1.28647 2.58106 9.59738
1.93852 4.64157 14.9369
3.3249 3.88926 10.6642
2.04225 5.75421 19.1993
4.83745 16.3447 29.8589
3.08141 7.85813 27.8013
2.78718 7.80549 32.6914
3.31213 8.13716 23.407
2.84328 5.40991 20.7288
5.23064 12.2239 22.3124
1.82076 2.46994 6.87793
1.18147 5.78899 18.3676
1.86776 2.36653 13.9266
2.38238 4.64458 12.6249
2.21 7.10976 21.1799
2.88485 4.43692 9.70261
1.84472 5.77928 16.3259
2.51684 8.34268 34.1525
4.90941 10.3648 30.9383
2.05505 7.82508 30.493
4.18184 6.98922 9.96692
2.90233 6.20331 12.7108
3.16185 11.6826 37.7253
3.17281 8.17175 13.8107
1.2662 2.2686 9.55872
1.45527 8.04772 31.1917
2.53809 10.2391 22.8026
2.12694 5.0636 28.4679
5.09943 10.186 23.3025
2.3818 7.02132 19.0402
2.75808 5.70703 23.6362
2.89975 10.1425 30.1586
2.82899 8.34511 15.201
2.27395 8.83377 38.3775
4.88837 6.59169 22.9667
3.73793 13.5179 33.6537
3.87663 4.90209 8.85778
1.16195 4.4859 14.0391
2.95229 8.96532 17.1435
1.76911 4.25392 18.2904
2.46536 8.23206 14.2707
0.689981 4.13703 19.0053
2.44431 6.02913 20.6683
2.61114 7.05453 20.7612
3.00436 11.6832 43.1675
3.7423 6.84563 16.7733
1.56832 7.08541 25.5301
2.95514 7.38199 15.3418
2.15668 6.39718 22.858
2.22575 6.7651 15.8372
1.66201 6.37919 22.2247
1.855 4.65079 19.0092
3.21371 4.98316 10.9365
1.6249 4.2544 12.5791
1.59782 4.18737 24.1658
4.12093 10.5201 23.004
2.45474 6.04652 16.2926
1.95422 5.60686 19.9518
3.16109 6.34311 18.0698
3.04507 6.97029 15.9809
1.57733 5.40694 16.5198
2.17131 9.50846 28.8025
2.26207 6.95791 22.702
2.57162 3.20734 14.1764
2.97664 8.63354 20.82
1.5851 4.26163 10.4361
1.64769 6.18444 26.2078
2.559 4.78181 16.5043
2.55485 5.7411 9.35584
1.7172 7.16363 38.4164
6.29875 14.0244 25.6834
2.36169 4.88387 17.8661
1.5003 5.22344 29.3172
3.56143 10.2789 26.0652
1.839 4.03073 8.23178
1.29396 4.67439 23.4188
2.88262 4.36215 16.9412
2.95219 8.01478 16.751
1.43986 4.72073 22.6098
2.35073 6.31323 16.1628
2.46317 10.0859 29.746
2.21654 4.47932 27.4122
3.67519 5.48065 7.425
1.91378 8.62874 24.4129
3.33803 8.20856 25.1301
2.12782 2.43327 10.2246
2.27163 4.79902 20.83
2.45934 5.51881 10.6649
1.63074 3.2573 10.8963
2.34896 9.6343 32.7358
3.74797 14.2429 34.582
2.01741 4.45576 34.2307
2.80582 3.73601 12.4215
1.92294 6.67409 17.1493
2.20594 8.23144 39.0232
5.12611 10.1251 10.856
0.993199 3.09603 15.3079
1.55282 6.10508 17.8555
2.02726 4.55358 9.31742
1.88583 9.63061 26.74
2.69541 5.33735 9.86657
1.44133 6.449 19.3559
1.92205 7.51738 29.2803
2.74858 6.44358 25.4191
3.02992 9.21184 25.8109
2.13644 7.7502 31.8001
4.24627 7.89238 16.2275
2.06336 4.70167 14.6866
1.97647 2.98088 19.7126
3.13602 7.64688 16.3682
2.0083 5.84483 15.6937
1.23002 4.42154 14.6328
1.59706 10.309 42.8305
4.48908 9.76824 35.3148
3.11822 2.8836 10.6859
2.00933 7.79112 26.1176
3.09877 10.535 23.2244
1.68455 3.42849 13.0724
1.60273 6.39739 23.3274
2.28822 10.3968 24.5659
2.36842 9.01062 37.2872
3.46089 4.39009 19.1685
3.03226 5.05417 13.068
1.55812 1.58347 11.9023
2.61708 7.95239 24.8465
1.97767 5.12731 21.405
2.65793 3.69438 11.2701
1.11607 4.41253 12.049
1.83045 7.94348 36.0086
3.5502 8.70418 16.6733
2.54862 9.36939 33.8423
2.86654 7.60179 27.9506
3.17542 7.99118 26.9404
2.96527 8.57415 31.3152
3.40502 5.26708 17.0209
2.50216 5.30832 18.403
2.12213 6.95245 16.612
2.25497 6.95234 24.7361
2.75429 12.087 48.5292
3.81156 10.9162 44.8728
4.33367 4.69498 8.89027
2.22869 6.71691 14.9529
1.60327 5.53964 26.7203
2.44586 6.19989 24.744
2.77442 6.79833 13.2381
1.79892 4.8867 17.85
2.14015 5.78821 24.215
2.58546 7.66335 18.8118
2.27564 5.68216 25.0853
3.34595 6.92332 16.2214
1.84381 6.76413 23.0008
2.00262 3.83006 19.1669
3.27116 10.1175 22.7482
0.575487 3.69324 26.1681
2.66809 5.83396 25.3586
1.63841 7.82119 29.2065
3.15696 6.94926 19.277
1.35166 3.87431 11.2207
1.24333 5.49868 16.5645
1.76893 3.79756 11.5041
1.29806 5.00166 13.8788
1.49318 9.3853 36.28
3.32972 4.99437 18.9199
1.66496 4.00838 19.4191
3.5146 9.5623 26.5618
1.93172 3.87148 12.0585
1.20777 3.18503 14.6339
2.07519 5.94305 27.889
2.41894 5.79131 20.9621
2.38973 7.91443 33.03
3.41901 7.84287 21.8716
3.51843 12.5413 41.5959
3.6897 12.9816 34.4405
2.3255 10.6016 45.954
4.44308 7.88242 11.5021
2.39632 9.98768 41.3709
3.79421 8.85722 30.1098
1.84504 6.58611 13.1652
1.09088 3.90039 21.7883
2.08286 8.35199 18.294
0.889658 6.84756 31.7225
2.15763 7.46452 26.1367
1.74008 6.12424 19.3899
2.17144 8.93329 31.4712
2.50643 9.04789 35.2424
3.54829 5.7029 14.6882
1.46167 4.76283 12.2432
1.42088 4.84993 25.1055
2.9228 5.35212 27.9324
4.04456 6.92515 12.114
1.71172 5.90731 28.8022
2.98171 5.24163 14.5585
2.1574 6.67309 18.0835
1.92021 11.305 52.3365
2.73463 7.24506 13.6473
1.32108 6.70952 20.6993
2.48686 10.9021 40.1074
1.89231 3.21996 21.3923
2.34813 6.05141 32.3519
3.14255 6.82046 17.1641
1.79896 5.21754 15.5622
1.60121 8.55805 22.895
2.6816 4.65402 10.045
1.35718 2.10658 12.5056
2.28855 8.97793 31.5665
2.10751 6.18402 23.9017
2.69655 8.35702 23.2769
1.14598 5.13568 20.2172
2.13628 6.64364 22.4792
1.00933 2.23896 19.5019
1.73579 3.85517 13.1203
1.34107 2.13033 18.4652
2.57865 11.0933 23.7493
2.06455 5.19211 20.3507
2.3578 10.8893 26.8979
1.93675 9.25913 45.9118
3.58942 10.9466 35.8512
3.30279 9.99644 39.3685
3.01652 6.15303 16.3712
1.38908 8.48335 32.4512
2.87331 11.1312 28.8081
2.64412 10.4827 53.4278
3.71974 4.6139 19.5276
2.9275 7.28338 22.7172
2.01518 10.0739 34.7818
2.65424 5.84626 19.2612
2.62581 4.81393 14.4703
1.67179 5.88372 18.4804
1.76396 4.17546 19.156
1.89317 5.42829 22.7743
2.45527 5.96224 15.1141
1.33118 4.59519 25.7292
2.66702 9.93731 31.348
2.31304 4.4324 16.6637
2.5757 10.8814 37.8696
2.36858 7.46431 22.5602
1.5719 4.23723 18.9615
1.57501 7.47662 33.2206
2.181 7.36087 17.7877
1.12622 4.30137 16.7935
1.21827 2.62822 19.987
1.72857 5.27574 24.653
2.76887 7.33479 18.9713
1.75242 8.31243 29.4949
2.38997 7.64165 29.5302
2.93095 15.5242 42.4169
2.18158 8.54036 25.9937
1.72944 5.92908 50.9514
4.54567 12.2436 37.0543
3.18649 11.4023 18.6771
1.05899 5.33546 36.2878
2.93928 4.13079 22.5681
2.10668 7.30508 22.3389
1.88186 5.24479 25.9905
1.24467 4.81959 25.4711
2.37457 10.573 25.0474
1.91502 6.32108 27.9094
2.36126 4.10225 14.9454
2.65391 9.82978 27.7845
1.70972 4.96702 21.0536
1.78552 5.10834 17.6856
1.42323 6.37678 25.7206
2.77927 7.34168 27.407
2.57135 7.12504 25.8852
2.76217 9.83095 32.2663
3.16979 12.3 53.3014
3.57726 5.03701 11.0627
1.32893 3.72831 20.0036
2.51541 9.82422 26.5537
1.76573 3.96868 22.8933
2.58273 7.43201 28.2701
2.58387 5.66831 10.9204
1.3169 3.40097 16.3048
1.80241 8.00241 25.4953
1.56413 3.10558 26.949
2.18241 5.8256 26.1494
1.86086 6.34411 19.8186
1.79197 4.94355 22.3995
2.30214 7.39034 9.01259
1.3232 4.55286 23.2556
1.38352 5.41149 16.1063
2.05323 4.73677 13.5919
0.626818 7.64729 35.3297
2.98817 7.60757 20.8944
2.13926 9.68277 38.8537
2.09327 7.84201 40.3282
2.93131 5.02564 20.2952
1.99528 7.12394 11.7474
1.02875 3.60311 16.1054
1.11552 4.98129 26.6495
2.39201 9.47632 35.4182
2.74392 6.23141 19.849
1.48509 6.6543 12.5774
0.943594 6.65479 27.8582
2.51218 2.68478 19.814
1.94141 5.55709 18.8208
1.24267 5.14404 20.1961
1.6782 10.9134 32.7274
2.20415 6.72506 27.3302
2.77168 9.91978 40.5649
3.17014 4.89691 17.7544
2.4315 4.15874 17.8312
2.15004 7.06961 27.2851
2.86366 7.64844 27.7538
2.24558 11.4611 32.2209
2.0669 4.50589 35.5665
2.73618 6.20924 16.1025
1.86418 5.53985 25.9394
2.26467 6.4709 30.8167
2.76375 6.782 24.3076
2.38574 5.11476 10.8382
1.44858 4.59786 27.6473
2.1452 7.07392 21.4907
2.06232 6.33025 14.3288
0.788385 1.6142 8.6144
1.27048 5.76101 26.1841
2.37961 3.97018 18.9041
1.90691 5.40986 13.5669
1.60891 7.67773 24.504
1.94391 6.10506 25.6442
1.72092 3.68343 24.7658
2.33655 9.75412 36.206
1.27599 7.17692 23.883
1.81985 8.85637 28.2056
2.32189 5.61588 30.154
1.92638 6.47994 30.0936
1.85366 8.9914 35.5711
2.18365 4.11156 13.3642
0.934687 7.14424 40.6806
3.13568 9.76274 17.0943
2.30733 9.3149 38.1525
2.51324 7.81712 23.2716
2.38168 7.71603 41.6463
3.43087 9.9961 23.3522
2.1485 5.94445 29.1598
1.70844 8.3458 31.9052
2.98579 4.66543 18.6741
1.79209 2.70077 13.8122
2.07518 8.15549 29.2221
1.68518 10.5845 50.1795
4.31987 10.5223 24.0639
1.29275 8.38077 45.0466
4.22136 6.98337 24.774
2.31856 10.5841 22.2968
1.30785 4.48551 19.5884
1.16934 5.68267 29.8202
2.37503 6.78654 18.4517
1.52873 5.68863 28.4421
1.79829 7.3662 44.6904
3.86348 8.29278 35.0283
2.53714 7.98746 26.6647
2.06009 7.78795 13.2056
0.756117 0.86991 8.83527
0.832601 7.28554 22.6056
1.66424 7.36904 26.7211
1.79004 3.64893 34.1414
2.09387 13.7985 34.544
2.06245 3.92743 34.7967
3.10359 9.45114 28.684
2.81006 6.19833 24.5229
1.953 2.87115 21.586
2.85155 17.07 43.225
2.83989 5.76779 22.7
1.5487 12.9444 43.6175
2.41744 4.71259 21.5919
1.79198 4.51542 21.3619
2.10934 5.70671 35.6701
2.99406 8.3111 26.4005
2.26206 5.45631 20.0863
1.76852 2.40691 10.9366
1.05011 2.72129 22.9838
2.5572 8.86715 30.2437
2.72495 6.98494 23.1451
2.21169 4.11586 10.7667
1.64973 6.72825 19.731
1.14807 6.32495 30.0194
2.01358 7.68042 15.3006
1.23997 3.64731 13.3975
1.12543 6.87938 31.7731
1.86416 2.93489 11.8862
1.00042 3.43268 18.6919
1.64351 5.36434 20.4136
1.3293 7.2735 24.107
1.69017 8.10519 31.0949
2.54301 2.24238 18.8927
1.96105 6.00443 19.1704
2.29343 4.44732 18.0614
2.16664 11.6491 39.6119
2.84063 6.75435 19.9197
0.794093 4.91129 29.7615
2.17035 5.7672 22.4103
1.42814 4.82076 10.3245
0.867236 4.72798 24.2292
2.26849 4.80276 15.5533
1.40395 9.07547 33.3078
2.77667 2.81683 14.5794
1.30039 8.29736 58.524
4.65777 11.3673 24.1651
1.76669 2.54562 16.5259
1.63043 6.34439 10.284
0.587688 4.84893 33.9588
3.13132 8.12142 33.453
2.4706 11.2861 27.565
2.14891 7.38321 41.3231
2.5195 4.36909 9.75571
0.899387 5.38318 28.5114
2.09119 7.48348 38.3359
2.8129 8.75694 29.0768
1.55606 3.62733 24.5086
2.08359 5.29915 23.4687
1.48988 6.6438 26.3922
2.00829 7.60399 15.0814
1.26456 10.623 42.0795
3.12185 5.34836 13.181
1.26433 5.7404 31.6253
2.51459 7.55706 25.5532
1.57677 2.89082 24.804
1.75038 6.59363 19.1116
1.08322 8.64975 48.847
3.88749 8.07775 11.1
1.29989 4.87841 19.0127
1.47199 3.89417 18.0444
1.40975 5.11014 13.5109
1.39689 3.93867 23.2509
1.67032 9.118 48.8324
3.55265 9.99973 39.0221
3.43914 6.24471 16.6999
1.2988 6.28543 20.6968
1.40864 5.1574 28.3886
2.49112 4.71387 19.9372
1.40623 7.65063 24.2725
1.51955 5.98147 32.3628
2.70562 11.3543 51.7073
3.12231 12.3206 34.6176
2.59548 7.08893 24.769
2.09856 8.07265 27.7915
1.24637 8.81545 31.2528
2.27404 4.33013 23.495
2.10101 8.00693 16.7395
1.32317 6.13039 33.9662
2.65964 6.80498 38.0973
2.93692 6.34575 15.776
1.36892 6.39817 30.7359
2.1207 8.14221 31.3318
2.74403 7.86214 17.8941
1.63723 2.29314 18.8648
1.40207 6.36017 23.9889
0.986596 4.96451 28.8918
1.6549 9.55224 16.9708
1.72611 3.5368 36.8196
3.32656 8.24697 28.2585
1.74279 4.94302 15.7857
1.36886 8.25589 26.3975
1.35904 4.87717 25.8404
1.75578 3.89008 14.0319
0.79959 4.52316 11.7597
1.28222 5.14512 31.3853
2.28991 9.05182 36.2596
2.33335 8.55219 31.9016
2.08919 11.4179 44.5134
3.52902 8.21364 24.6225
1.63449 7.41205 26.8531
2.19133 8.01286 42.0231
3.66937 7.72162 34.8577
2.48732 4.81874 19.842
1.66569 8.93032 33.9178
2.42604 10.6558 35.7018
1.83568 7.16667 10.507
1.00079 4.93263 42.967
2.96855 10.1962 30.8021
2.12226 4.0606 7.09479
1.10561 4.96068 28.8193
2.46798 6.614 26.6457
2.16757 4.26954 11.4637
1.10466 3.574 16.3654
1.69783 2.3065 6.55127
0.925182 2.88592 17.4986
1.8941 7.76698 35.6899
3.35575 5.0815 26.6552
2.6333 8.69788 15.7854
1.17473 7.02674 30.6604
1.85559 4.6701 13.0631
0.971789 5.9074 37.7493
2.78462 3.21823 16.815
1.58255 5.25532 20.2896
1.98789 4.82368 22.7638
1.62795 5.77409 16.9453
1.6261 4.71869 43.2134
2.39742 7.03099 20.2485
1.98027 7.2267 28.4758
2.55449 3.62519 10.0468
0.761972 4.13129 23.7639
2.02168 5.32898 28.6623
2.44616 6.56916 23.0402
2.15766 5.14357 15.7104
1.56311 4.55808 20.3063
1.35461 4.17598 16.3966
1.56672 6.45001 30.8782
2.19897 4.93649 20.4258
1.71756 6.22457 24.0981
1.83359 7.93583 47.0071
4.08512 5.66024 24.2111
2.07519 6.94835 22.1753
1.48938 10.9103 26.1576
2.93415 4.48672 19.0249
1.63215 6.73183 28.9467
1.68344 7.87216 35.1851
2.77211 8.5198 16.6106
0.929723 4.01648 46.3003
2.83723 11.2165 40.9844
3.11148 12.6545 30.1879
2.30067 6.19739 27.6183
1.41489 9.30003 33.7809
2.24082 6.92217 40.4359
2.38706 12.4374 24.2423
1.93515 5.39037 27.8526
2.4148 8.88166 40.9272
3.23726 7.87501 18.6624
2.23804 0 0