# pn-170911/RbIIF-70-RbIIR-1280-1959.psd
# Power spectrum* (dif=0,1,2) (really just |FT|^2)
# NOTE: only the first half! (symmetric)
# weeks: 1280-1959
# 490 clock-days, 2 excluded
# PSD: 1441
217.286 0.0455142 0.0206343
26518.3 0.576002 0.0161068
113159 2.36479 0.0162547
25059.5 0.964677 0.0163472
81047.9 6.46525 0.0155491
8265.26 0.737125 0.0159462
7242.21 1.05483 0.0158341
4487.95 0.748788 0.0160359
3524.67 0.838166 0.0153444
2706.34 0.764508 0.0150385
2178.15 0.794479 0.0173687
1756.07 0.756304 0.0140287
1596.29 0.830502 0.0151313
1205.46 0.74681 0.0159047
1116.79 0.812983 0.0155748
1009.13 0.831282 0.0158268
830.464 0.797519 0.0153615
819.403 0.896398 0.017827
723.758 0.87959 0.0167372
620 0.845919 0.0175849
604.974 0.945314 0.0179497
551.784 0.887725 0.016936
497.855 0.953032 0.016229
442.272 0.877908 0.020289
430.134 0.953593 0.017999
405.417 1.0041 0.0189766
362.799 0.968765 0.0187001
354.038 1.00602 0.0174056
369.094 1.14044 0.0199894
337.776 1.08267 0.0210387
343.097 1.2065 0.0212475
322.922 1.20364 0.0205539
309.133 1.23169 0.0221867
289.583 1.26845 0.0218353
286.305 1.31773 0.0239721
258.751 1.29189 0.0227402
256.081 1.24719 0.0225628
257.427 1.46123 0.0237391
242.817 1.41512 0.0252754
240.683 1.48226 0.0280834
241.119 1.54302 0.0249814
226.167 1.62529 0.0299695
211.244 1.50856 0.028153
210.507 1.62136 0.0286697
228.919 1.88674 0.0322823
193.929 1.60042 0.0304566
217.137 1.91552 0.0356503
203.489 1.87124 0.0357334
214.111 2.07407 0.0402032
178.251 1.80895 0.0372286
204.964 2.11971 0.040912
193.68 2.13915 0.0411255
171.496 1.97758 0.0392833
173.763 2.027 0.0417726
174.345 2.16077 0.0476686
167.779 2.34459 0.0518914
169.891 2.23906 0.0498265
162.333 2.29396 0.0549609
176.884 2.54942 0.0543408
167.849 2.57928 0.0597381
160.497 2.41553 0.0552983
159.689 2.56369 0.0594715
156.279 2.72594 0.064861
155.556 2.74871 0.070304
150.973 2.69619 0.0680331
153.301 2.89772 0.0735797
160.018 3.03095 0.0779399
162.388 3.21931 0.0845416
158.674 3.27272 0.0888466
149.122 3.16427 0.0873176
149.916 3.26306 0.0937153
150.439 3.38642 0.0922575
143.913 3.21474 0.0964553
147.336 3.53747 0.106211
144.11 3.57637 0.11514
140.193 3.50547 0.1084
134.919 3.49146 0.110492
129.845 3.46139 0.113076
144.508 3.79361 0.123793
131.427 3.68682 0.131321
134.038 3.8673 0.136104
132.772 3.76119 0.129194
139.723 4.23461 0.149015
119.925 3.78219 0.137812
132.645 4.05716 0.149441
125.597 4.10596 0.158269
137.489 4.66613 0.180738
127.018 4.3001 0.165865
119.422 4.15498 0.174347
119.572 4.27814 0.171675
134.975 4.96115 0.206034
119.997 4.44996 0.190311
127.866 4.86247 0.207336
125.961 4.94768 0.218026
115.421 4.66207 0.213546
116.932 4.77953 0.224
123.554 5.35153 0.248705
124.267 5.30519 0.250568
125.933 5.41742 0.260159
116.445 5.1563 0.254606
124.436 5.5933 0.282896
122.116 5.67035 0.28451
129.471 6.12939 0.322711
127.307 6.05082 0.315066
123.694 5.92287 0.319758
111.258 5.53586 0.30692
111.624 5.70694 0.325344
113.15 5.94456 0.330354
108.623 5.71555 0.339725
110.277 6.01502 0.364015
118.246 6.28124 0.370552
112.507 6.35326 0.38823
102.04 5.88784 0.363135
113.102 6.77508 0.420625
114.028 6.72372 0.421915
116.359 6.90285 0.449345
114.186 7.09642 0.463757
112.373 7.04249 0.467919
108.517 6.81214 0.467625
111.134 7.11031 0.489952
118.406 7.84426 0.546367
95.2303 6.6542 0.469827
108.545 7.33225 0.521742
98.1401 6.97849 0.520537
113.029 7.87964 0.586023
108.682 7.76317 0.595047
106.738 7.81203 0.59717
106.168 7.81241 0.611405
103.017 7.78253 0.616031
104.895 7.96639 0.645794
99.9233 7.80605 0.641521
98.3895 7.75459 0.654298
105.415 8.56151 0.719334
103.468 8.43779 0.713212
91.9659 7.6067 0.664967
99.8925 8.28415 0.722348
90.8661 7.93469 0.695921
94.9939 8.26463 0.762098
92.897 8.34499 0.766194
90.9269 8.0217 0.754629
101.599 9.00243 0.830227
87.1731 8.16255 0.781447
84.1999 7.77491 0.761552
95.0487 9.0005 0.889121
94.042 8.90558 0.872323
94.0012 9.15148 0.923543
91.4062 8.93305 0.905644
92.9567 9.46884 0.988284
87.8916 8.77959 0.954783
103.299 10.4352 1.09679
91.4343 9.33592 0.989988
97.1271 10.1342 1.11608
84.6652 8.88351 0.964275
97.1109 10.3805 1.16723
83.1109 9.09851 1.05035
88.0931 9.89852 1.15896
89.3951 9.91513 1.12438
87.7783 9.94244 1.16933
95.2943 11.0187 1.29274
92.4413 10.5641 1.27677
89.1437 10.2594 1.27351
90.3802 10.7333 1.32223
87.9137 10.703 1.33492
98.4189 11.8858 1.47563
80.5162 10.0363 1.28901
89.7239 11.1158 1.4201
80.8492 10.2525 1.35949
85.3511 10.9362 1.44306
81.5837 10.6242 1.40882
81.3218 10.6552 1.44286
89.4521 11.9138 1.61654
78.982 10.5446 1.47046
81.2494 11.0798 1.55192
85.1255 11.6447 1.6707
88.2997 12.2361 1.75323
80.8363 11.3264 1.64515
79.1576 11.3082 1.64825
78.0621 11.201 1.66083
78.7889 11.5557 1.72823
70.1096 10.3779 1.60092
79.0489 11.5717 1.76506
79.5506 11.7828 1.81025
78.8825 11.9627 1.87912
73.9379 11.5041 1.82489
71.7745 11.1677 1.7717
80.4804 12.7292 2.07886
80.3286 12.7002 2.08263
79.8547 12.6752 2.0875
72.3916 11.9044 1.98929
76.8997 12.7352 2.1486
73.8582 12.4403 2.1401
69.1885 11.8262 2.08773
72.1419 11.9449 2.05335
72.7203 12.4488 2.15965
76.4241 13.3419 2.39789
70.7156 12.4004 2.21481
71.9439 12.6423 2.26199
71.0229 12.8441 2.34063
76.3649 13.659 2.53458
75.1789 13.3449 2.48174
72.2623 13.4403 2.56434
77.862 14.2843 2.66248
73.7249 13.6206 2.5991
74.3028 14.2819 2.79801
69.2874 13.4021 2.61447
74.8014 14.6012 2.90843
71.1505 13.8239 2.76226
66.7494 12.7223 2.53127
70.9407 14.2346 2.89512
68.9659 13.7986 2.85447
70.3783 13.9316 2.89876
66.1764 13.6755 2.84336
65.321 13.8454 2.96517
65.2937 13.433 2.84848
63.7563 13.6285 2.96219
69.8153 14.7431 3.15088
65.3886 13.9934 3.03137
66.1969 14.1132 3.09934
64.663 14.1642 3.17517
65.9078 14.4422 3.19959
62.8013 14.1367 3.25089
62.979 14.38 3.33275
64.6508 14.6837 3.41164
65.1611 14.8479 3.44566
58.9111 13.7448 3.31108
66.7459 15.278 3.55171
60.0174 13.9299 3.31747
62.9149 14.9527 3.6537
62.0778 14.6961 3.57802
63.3984 14.9723 3.63314
61.3124 14.8464 3.67391
60.753 14.5456 3.61162
65.6733 16.3806 4.10389
60.7111 14.9409 3.78581
61.8926 15.5006 3.99015
59.9845 15.2213 3.97455
58.4113 14.7681 3.75677
57.2797 14.7702 3.89368
57.9473 14.8823 3.93051
61.1662 16.2621 4.37063
60.1219 15.6964 4.19941
59.0787 15.7489 4.22382
59.4862 15.7061 4.28866
59.2754 16.0936 4.48034
55.371 14.9119 4.15258
62.9406 17.362 4.87404
54.7256 15.3674 4.37809
62.8589 16.9769 4.71767
57.6402 16.1732 4.60087
54.914 15.7931 4.60995
57.9577 16.7107 4.90655
59.5281 17.3008 5.10923
59.029 17.1738 5.10995
57.4106 16.5301 4.84476
56.6208 16.4843 4.89733
53.1409 16.0582 4.87103
55.354 16.6975 5.10398
51.9505 15.622 4.74808
52.5102 16.2326 5.13779
56.0913 17.5099 5.44926
49.4603 14.8463 4.56066
56.3543 17.8871 5.6758
57.5987 18.2032 5.81263
51.0808 16.2336 5.27431
56.0468 17.6915 5.66036
54.1808 17.2334 5.58628
51.3104 16.8 5.53461
51.3452 16.8396 5.56639
51.9376 16.9963 5.6999
51.8927 16.9195 5.71558
52.4658 17.2771 5.84586
54.8536 18.3457 6.17181
51.2321 17.1266 5.87261
52.7297 18.0412 6.2599
53.1643 18.0309 6.1884
49.4165 16.9526 5.93742
46.4968 15.7751 5.51216
49.8706 17.2047 6.0713
46.3108 16.3384 5.88279
49.792 17.6161 6.35253
48.4726 17.0839 6.20908
48.721 17.4933 6.28974
45.0196 16.4852 6.11746
49.8823 18.5586 7.01467
48.7202 17.6764 6.53614
48.3692 17.783 6.68759
52.5988 19.3496 7.25956
48.3812 18.2403 6.9684
49.8035 18.955 7.24835
47.845 18.2392 7.06188
48.8368 18.4973 7.25142
46.7274 17.5031 6.71891
47.5731 18.6219 7.32803
43.9034 17.6779 7.054
42.5361 17.0685 7.10241
47.4515 18.2372 7.19272
47.6443 18.705 7.28938
45.3379 18.5002 7.55363
46.2804 18.6258 7.53846
43.658 18.002 7.58985
43.3896 17.2712 7.1834
43.3761 17.6515 7.27624
46.3244 19.2821 8.20221
46.2373 18.6939 7.72459
41.7038 17.6515 7.59798
42.8257 17.9423 7.63451
47.5005 20.001 8.57996
44.6671 18.626 7.96116
43.6944 19.2875 8.64168
47.8037 20.8015 9.0792
44.9942 19.208 8.40671
46.633 20.2081 8.80605
42.6007 18.8176 8.45878
41.4749 18.3013 8.2559
44.4206 19.5044 8.66626
45.3192 20.5928 9.35864
38.7294 17.3519 8.04401
41.5641 18.9063 8.78974
40.3096 18.2386 8.34357
40.5139 18.7876 8.65365
38.4493 18.0116 8.57296
40.9833 19.424 9.33633
43.3448 19.9864 9.32503
37.3648 17.5894 8.5554
41.0722 19.1988 9.08444
37.8042 18.3255 9.08475
39.4237 18.6278 8.84276
39.7983 19.2486 9.43201
41.4382 20.2198 10.0139
38.9901 18.6698 9.17883
40.9491 20.0781 9.82073
36.9439 18.2126 9.22294
41.0103 20.0721 9.96046
38.2536 19.3025 9.77505
37.9366 19.1389 9.91317
39.6902 19.8122 9.95324
37.5416 19.4085 10.165
36.9842 18.4331 9.45621
37.2692 19.7182 10.432
39.387 19.9424 10.248
36.6641 19.1555 10.264
36.2431 18.7287 9.80255
35.7803 18.6441 9.89628
37.6075 20.2401 10.6838
34.3879 18.3249 10.0238
36.648 19.2493 10.512
38.9455 20.838 11.3075
40.1001 21.3835 11.7344
35.7289 19.2949 10.7896
36.3678 19.1854 10.4506
34.0836 19.0391 10.6139
36.3116 19.9902 11.2927
38.5637 20.477 11.1558
38.0899 21.5342 12.2659
35.2826 19.2352 10.6223
35.4838 20.3027 11.5459
33.7998 18.8708 10.8176
35.2033 20.4113 12.1212
35.5541 19.8836 11.4107
32.7744 18.8276 10.9045
35.3973 20.7517 12.2728
33.8142 19.5056 11.5267
34.6635 19.7279 11.5355
32.4663 18.6786 11.0223
33.1732 20.5334 12.5924
32.8427 18.7073 11.1466
36.4006 21.2529 12.4439
32.0308 19.1281 11.478
32.3909 19.7184 12.0888
32.4242 19.9288 12.5249
33.1561 19.8696 11.9839
30.8992 19.479 12.3536
31.2092 18.8799 11.6521
30.369 19.0338 12.236
32.43 20.0644 12.8434
32.5267 19.4533 11.7877
28.2708 17.8101 11.5757
32.343 20.0807 12.5401
30.7005 19.4612 12.3282
28.0821 18.5727 12.4473
29.9836 18.6234 12.0863
31.0104 19.4499 12.4408
29.8085 19.6236 13.2026
32.8103 21.0108 13.6017
31.853 21.2776 14.4582
31.4986 20.2251 13.34
29.8173 19.5692 13.0628
30.003 19.9587 13.6314
30.201 20.0725 13.4062
29.6875 20.2132 14.0146
31.8619 21.0149 14.1511
29.9293 19.8465 13.3809
30.9899 21.9217 15.6016
30.8532 20.7095 14.0951
28.9431 19.9246 14.3663
31.2907 20.7193 13.7013
28.6978 20.4199 14.5894
30.0182 20.6641 14.5134
28.1848 19.775 13.9684
29.445 20.7259 14.7497
27.5013 19.4492 14.0026
27.0441 19.2761 13.9273
29.5304 20.795 14.7498
27.43 20.4407 15.387
27.9839 19.5076 14.0916
28.24 19.6298 14.0683
27.2432 20.1891 15.0511
28.4322 20.6399 15.0916
28.2462 20.7834 15.1897
27.2935 20.211 15.2364
25.6494 18.903 14.3936
29.3473 21.328 15.5273
26.266 19.6102 14.9281
28.7598 21.3916 15.9613
27.291 20.6738 15.7309
27.3598 20.8505 16.1223
26.2416 19.7542 15.328
25.0165 19.1877 15.061
25.4602 19.0765 14.7012
26.2454 20.3589 16.0049
24.6166 18.7615 14.732
26.1065 20.1767 15.8997
26.3888 20.244 15.8021
25.3039 19.7242 15.4106
25.0157 19.8109 15.6943
24.7544 20.2256 16.6695
26.4194 20.6052 16.1755
24.305 19.5536 16.1036
27.0121 21.3771 17.2064
24.1991 19.3519 15.7763
26.1035 21.2237 17.4631
24.4719 20.1224 16.8187
23.619 19.1351 15.8881
26.3763 21.3497 17.4926
24.9431 20.4328 16.9719
24.1142 19.4828 16.4142
24.9205 20.9153 17.7939
24.8236 20.1018 16.7722
25.9223 21.8604 18.6444
26.349 22.1666 18.862
22.2175 17.8486 15.1995
23.5501 20.0487 17.0841
23.5778 20.2091 17.7889
26.5217 21.9849 18.2843
24.9037 21.5349 18.695
22.4942 19.2999 16.8284
23.8711 20.6123 17.9267
22.2678 19.4708 17.1834
22.964 20.2644 18.0093
24.3397 21.4677 18.5428
22.658 19.9625 17.889
22.7799 20.3818 18.6981
24.099 21.606 19.7181
24.9599 21.779 19.4738
22.8964 20.2602 17.9977
22.4691 20.2211 18.6839
22.73 20.7191 19.1546
22.7362 20.0858 18.311
24.0325 21.3115 18.8589
22.7223 20.9368 19.2416
20.8129 19.319 18.5084
22.7874 20.1075 18.4992
22.3052 20.3212 18.8242
22.1858 20.4704 18.9978
22.0878 20.9273 20.4009
22.2537 20.1128 18.7545
22.2497 20.185 18.7205
21.6281 20.5185 19.7931
21.9381 20.6448 20.0069
21.6374 20.0986 18.8904
20.7615 19.6496 18.8571
21.4067 20.6569 20.1112
21.8565 20.7278 19.7288
21.1319 20.4347 19.9082
19.9206 19.5599 19.596
21.5995 20.2438 19.8734
21.465 20.5621 19.8438
20.4996 20.105 20.0607
19.834 19.3507 19.3715
20.9803 20.2704 19.7405
20.5727 20.2674 19.9968
20.8955 21.0991 21.5274
19.0227 18.7097 18.9294
21.0759 21.3367 21.5979
20.4595 20.4309 20.7123
18.9429 19.4477 20.5886
20.1677 19.9167 20.1315
19.4232 19.1896 19.0933
19.7296 20.3256 21.0954
19.621 19.3361 19.4184
19.1814 20.15 21.6315
20.6987 21.3019 21.5625
19.0639 20.2088 21.5536
19.7151 20.6245 21.7925
19.8937 20.7479 21.5621
17.6387 18.8601 20.5741
19.5447 20.4069 21.6216
17.902 18.8768 20.3489
18.9333 20.3251 21.9669
20.3606 21.8892 23.5886
18.365 19.279 21.2051
20.2195 20.9929 22.0758
19.5951 21.0663 22.9414
18.6489 19.2073 20.4095
18.1657 19.9527 21.6826
18.0198 20.0442 22.645
18.8356 19.9595 21.3849
18.0054 20.2025 23.1311
18.7288 19.6478 21.3905
18.8969 20.431 21.851
18.2763 20.7736 23.6931
18.5049 20.3829 22.7777
17.3795 19.4539 22.1596
18.243 19.9854 22.1218
18.6473 21.4103 24.1794
16.7519 18.9826 22.4422
17.7611 20.2094 22.997
17.342 18.7661 21.3984
17.4089 19.9927 23.481
18.3155 19.6987 21.9807
17.6014 20.1622 23.4645
17.8527 20.6469 23.974
18.05 20.7124 24.214
17.133 20.0401 23.9703
18.5001 20.6062 23.4228
18.1292 20.5854 23.7616
17.8089 20.584 24.2938
16.8515 19.5764 22.8131
16.6425 19.62 23.5271
16.8799 19.9445 23.9229
16.6059 19.6186 23.6796
16.6124 18.716 21.7921
16.8816 20.3623 24.4054
15.8852 18.7517 22.9595
17.1317 20.4736 24.7657
16.3488 19.2674 23.2175
15.0621 18.2938 22.9281
16.9687 20.3478 24.5426
16.3263 19.7525 24.045
16.2941 20.3353 25.7134
16.3841 19.2657 23.5615
15.1564 18.0969 22.4694
15.3777 18.4632 22.7515
16.2033 20.2146 24.8875
15.6499 19.4505 24.5641
15.3386 19.1227 24.2643
15.9935 19.4118 24.1453
15.4984 19.2185 24.4789
16.7259 21.0493 26.9356
16.5783 19.425 23.3123
15.7088 20.1168 25.9498
15.6941 20.1736 26.1892
14.8393 17.473 21.5463
14.8027 19.4763 24.8022
15.5278 20.7908 27.3762
14.9553 18.7673 24.1648
14.6942 18.9992 25.0721
15.1378 19.3735 25.6712
14.9517 18.7735 23.9778
15.6855 20.5445 27.0044
16.182 21.0412 26.9814
14.5446 19.6445 26.7291
14.6658 18.931 25.4059
15.3571 20.2295 26.6662
14.98 19.8746 27.4063
15.3057 19.5712 25.2497
14.3069 19.2171 25.9858
14.6592 19.5394 26.3616
14.0844 18.9425 26.0597
14.1884 18.9128 26.4988
14.7894 19.1846 25.9551
15.133 20.2139 27.2634
14.4767 18.8112 25.1233
14.1603 19.6814 27.2227
14.2649 19.6905 27.6472
14.8961 20.5687 28.4147
14.7574 19.8081 27.1806
14.0756 19.1789 26.7895
15.6178 21.6107 29.4032
14.6349 20.1357 28.3348
14.6174 19.8359 28.1079
14.4945 19.4581 26.689
12.842 17.9394 26.1227
14.4985 19.7727 27.0544
12.7547 18.1405 26.7693
13.459 17.5538 24.415
14.5272 20.1643 27.6312
13.456 19.1592 27.302
12.1578 17.7304 26.7678
14.0605 19.2292 27.4558
13.9824 19.8983 27.6139
12.7607 18.7152 27.5939
12.8201 18.4291 27.615
13.4907 18.4748 26.1228
13.3884 20.0481 30.9436
14.407 19.4027 26.9539
13.2365 18.7519 26.5378
12.5333 18.438 26.9541
12.5979 18.2135 27.1476
12.6047 18.1201 26.7464
12.8844 18.6193 27.5079
12.3853 17.9277 26.1155
12.1395 18.3193 27.8495
12.9871 18.3775 26.8555
11.5475 16.6238 25.5822
13.1684 20.2094 30.9414
12.9512 18.343 26.9702
13.3101 20.0655 29.3707
12.2183 18.9729 29.7802
12.5492 18.8802 28.8463
12.7838 18.7833 28.2969
12.1888 18.4267 27.9371
11.7005 17.5288 27.1538
12.2054 18.0815 27.3315
12.1572 18.7724 29.0897
12.1147 17.8426 26.5368
11.7107 18.7004 29.4105
11.6385 17.4362 27.4151
11.6311 17.9003 28.1345
11.824 18.3722 29.4508
11.544 17.489 27.8982
12.6472 19.0955 29.09
11.6469 18.3972 29.8903
11.8119 17.6306 27.3523
12.2325 19.2068 29.5415
11.1773 17.9372 29.6671
12.3522 18.5905 28.3377
11.1128 18.1683 29.6036
10.9875 16.9215 27.0578
11.1344 17.5777 27.9337
10.9383 17.078 27.9716
11.9586 18.6564 29.1834
10.7981 17.5863 28.917
10.6448 16.3418 26.3963
11.323 18.6337 30.8827
11.7373 18.0833 27.8999
11.0275 18.6465 31.7153
12.1606 18.7426 30.0251
11.0166 17.3957 27.7971
10.5191 17.7647 30.5119
10.72 17.1159 28.642
11.1904 18.3747 30.2218
10.9294 17.7106 29.6498
11.954 20.134 32.7046
10.5805 17.265 29.4517
10.5025 16.7533 28.0796
10.3537 17.4727 29.5343
11.1161 18.1553 29.7154
10.1255 17.5906 31.2241
10.9847 17.6501 29.2268
11.1048 19.0199 32.2627
10.4482 17.5525 30.6963
11.1685 18.3906 31.64
11.2367 18.5554 30.9563
10.4827 17.5515 30.7021
11.3008 18.8738 31.8274
11.3615 19.471 32.9401
11.0946 18.5793 32.4401
11.1248 18.7564 31.2004
9.97391 18.1442 33.1511
10.134 17.2194 31.0401
10.6814 17.5402 29.5329
10.529 17.6847 30.8691
10.5339 17.8506 30.5838
9.81494 16.9526 29.7543
10.0929 17.7329 30.5873
10.2009 18.4963 33.4019
10.7943 18.8584 33.4301
9.7184 16.9603 31.0511
10.4812 18.033 31.9533
10.5639 18.2824 31.6871
9.83664 17.4828 31.6673
10.4268 17.9302 30.9754
10.2184 18.8014 34.2486
9.65678 16.6831 29.6698
9.56629 17.6167 32.5959
9.76527 16.5224 30.1019
10.5294 19.0046 33.181
9.40961 17.058 31.5894
9.87132 18.1094 33.9432
10.2143 18.1897 32.5344
10.1112 18.1216 32.065
9.11736 16.7897 31.1636
9.06574 15.7608 29.6662
9.40115 17.6137 32.5377
9.25478 16.4289 30.562
9.14994 16.3376 30.3619
9.41247 16.9575 30.7436
9.40009 17.5298 33.2725
9.72529 17.5075 32.0856
9.69703 18.5097 35.0365
9.37868 16.5439 30.8039
9.71711 17.9359 32.1807
8.59292 16.5806 32.2261
9.51931 18.1142 33.9318
9.23454 17.323 33.8004
9.28789 16.716 31.8547
9.60361 17.9403 33.92
9.86386 18.5737 34.0737
9.23658 17.1538 32.1681
9.03385 17.8421 35.0363
9.38574 17.4971 32.8394
8.49493 15.9331 31.5704
8.98138 16.8476 32.2268
8.8047 16.7077 31.6791
8.62405 17.0101 33.5795
8.57471 16.0467 32.0264
8.87184 16.9879 33.5182
8.66646 16.4228 32.3129
8.81229 16.8931 33.7124
9.49954 17.8944 33.933
8.41397 16.2403 32.1003
8.59595 16.5838 33.3704
9.40824 18.3262 35.8867
8.6574 16.7582 34.7734
9.44827 17.2899 32.8595
9.01648 17.3351 33.2598
7.62648 14.9386 30.8998
8.99752 17.9234 36.4366
9.10119 17.44 35.373
8.76347 16.4489 32.9631
8.92948 17.3121 34.5035
8.71402 16.6842 33.0321
8.45321 16.4365 32.3333
7.83741 15.5034 30.9028
7.56844 15.5902 33.6114
8.56624 16.2126 31.5811
8.64151 17.557 33.7922
8.02236 16.9133 35.5419
8.10147 16.0021 32.8929
7.98187 15.5016 31.3754
7.66799 15.7711 33.7047
8.21057 16.3794 33.7909
8.28946 16.2188 33.2974
7.97253 15.3641 31.6867
8.29164 16.9638 35.4252
8.76429 18.2837 37.6725
8.79585 17.4938 34.8617
7.34068 14.4784 30.5251
7.80967 16.8263 35.5274
8.13898 16.6316 35.2896
8.15199 15.9415 32.9136
8.39102 17.5283 36.2227
7.936 16.2661 34.3796
7.65742 15.2703 31.6417
7.75206 17.0337 36.8756
7.804 15.4324 32.3504
8.03106 16.5589 33.5028
7.33377 15.7923 34.1814
7.38343 14.9572 31.2995
7.83623 17.2256 37.3021
7.79134 15.6578 34.0122
7.97273 16.6964 34.9307
7.69624 16.9647 38.2435
8.28762 16.5231 34.9222
7.8204 15.9228 33.2935
7.15889 14.8903 32.121
7.57453 16.6021 35.7788
7.90237 16.5457 34.6421
7.13001 15.2777 32.9358
7.35604 16.7948 37.7239
7.51701 14.964 31.7415
7.52897 16.2605 34.1846
6.72088 14.6309 34.0423
7.82873 16.5598 35.0088
7.52025 16.1436 33.4859
6.93116 15.5023 33.9264
6.93721 15.1586 33.3267
7.0288 16.4128 37.6856
7.15586 14.7592 32.959
6.68102 14.6072 33.0443
6.72451 14.0178 31.4007
6.85932 14.8162 33.848
7.26554 15.3744 32.95
7.17075 16.3833 36.1218
7.09361 15.5272 34.8876
6.96251 15.953 36.704
7.39772 15.9005 35.6843
6.97071 15.2953 34.4955
6.97362 15.3801 34.9124
6.96304 15.6396 35.267
6.91053 15.0556 35.0992
7.07469 15.1766 31.7608
6.28646 15.2286 35.7157
6.35226 13.6878 32.9185
7.43993 17.3553 38.3487
7.00289 15.5766 36.0609
6.68084 14.2552 32.379
6.91113 16.2687 37.5866
7.48542 17.0686 38.3595
6.71159 14.7651 33.3956
6.48125 14.5298 33.4634
6.32851 14.5248 33.4964
6.42942 14.5855 33.7385
6.55896 15.6391 37.8477
7.13172 15.5559 35.3695
6.53392 14.6081 34.029
6.52014 15.8835 38.4209
7.07341 15.5094 35.148
6.51815 15.3172 37.5803
6.74857 15.0323 36.1172
6.65743 14.3497 32.9573
6.76868 15.4799 33.8271
6.33843 15.1571 35.6683
6.13111 14.268 35.3591
6.59344 14.889 33.9221
6.1761 14.6564 36.3
6.83415 14.6455 32.174
6.04712 15.1659 36.2093
6.40253 15.3302 37.4767
6.51902 14.6489 34.327
6.21614 14.7262 35.2301
6.39732 15.9224 36.5685
5.65433 12.9645 32.9917
6.19088 14.5925 35.3462
6.21924 14.5301 34.3079
5.97859 14.7381 36.4729
6.0258 14.3781 36.094
6.18197 13.8538 34.1628
6.31131 14.9693 34.9902
6.06298 15.0578 38.2877
6.4848 14.9299 35.1453
6.05236 15.4348 39.4804
6.66865 15.4959 36.3948
5.89471 14.2992 35.8646
5.98899 14.0815 34.645
5.85276 13.8996 35.5095
6.20364 14.6721 35.8359
6.37891 15.7634 37.6777
5.88544 13.8266 34.956
5.97181 14.2424 35.164
5.97104 14.6923 36.4418
6.09762 14.9092 37.4848
6.04494 14.1513 34.4579
6.29406 16.2681 40.9503
6.24137 14.2695 34.1274
5.81251 14.4302 35.7743
5.98129 15.1999 38.1343
6.24303 15.4115 38.0672
6.12112 15.1696 38.8505
6.08152 14.8304 38.1421
6.23794 15.0309 37.5733
5.82818 14.2549 37.1053
5.93359 13.8949 34.5627
5.88663 15.2539 39.3951
6.29362 14.9865 36.5707
6.3123 16.8292 41.9497
5.99994 14.4617 36.5591
5.74521 14.1166 35.7568
5.54647 13.5719 33.7954
5.44341 13.9813 36.1012
5.87505 14.9111 38.0712
5.71596 14.4591 38.6207
6.10537 15.1578 38.2195
5.59869 14.2357 38.8995
6.33146 15.8571 39.9388
5.91242 14.4592 36.8195
5.8986 14.7233 36.8744
5.70053 15.2881 39.1872
5.51647 13.9415 37.0393
5.58538 13.8896 35.7802
5.60891 14.0668 34.7982
5.57619 15.2555 39.9431
5.5922 15.0545 41.6828
6.09712 14.338 36.5494
5.6978 14.5412 36.4543
5.15594 13.8701 36.9709
5.29083 13.6467 36.5716
5.37341 13.9071 37.5344
5.59364 14.0109 37.3376
5.54097 14.3399 37.99
5.58906 13.9568 36.8395
5.43625 14.109 37.5262
5.42655 13.6316 36.2278
5.48663 14.6463 37.3897
5.47452 14.9135 39.2009
5.43681 13.8499 35.8385
4.88448 12.7711 35.5706
5.07882 13.1414 36.3798
5.35859 13.7652 36.3911
5.4836 14.7297 38.2908
5.16422 13.8514 38.6298
5.49153 14.2492 38.9779
5.477 14.3148 37.4308
5.2388 13.4768 35.4573
5.04432 13.7376 37.3571
5.20186 14.152 38.7585
5.3812 14.0087 37.9169
5.70867 15.1659 39.0906
4.90655 12.6119 34.6998
4.91128 13.1835 36.1356
5.26305 14.999 42.1703
5.6929 15.7769 44.4679
5.98009 15.9497 44.5695
5.81829 15.4613 43.889
6.15235 16.4429 46.0848
6.61445 17.8949 49.0832
6.32204 15.9897 42.9879
5.90697 16.2059 45.6062
5.70872 14.6914 41.3507
5.90381 15.8076 42.0212
5.65552 15.9543 47.1519
6.50055 17.1596 45.3965
5.87188 16.0254 46.0572
6.60196 18.2299 50.3578
6.62962 17.6247 44.8991
5.35537 14.7891 43.7575
5.94669 16.3964 44.9215
5.87347 16.584 48.9932
6.62701 17.5161 45.241
5.69552 16.2248 46.6027
5.98432 16.9618 46.4289
5.15104 13.363 40.9442
5.80385 16.2643 46.3945
6.13096 16.7359 44.8746
5.51061 15.1517 43.9675
5.81282 16.1571 45.8584
5.85706 15.9253 45.9308
6.11096 17.7486 49.4329
6.23159 18.1416 51.1038
5.91149 15.6581 45.3252
5.92351 15.868 45.5409
6.02271 17.0248 49.3986
6.11025 16.0819 45.0206
5.87401 16.449 46.4685
5.8706 16.9258 47.6189
5.94182 16.8048 46.8692
5.72222 16.4025 48.6593
5.93937 15.666 44.3401
5.7059 16.2437 45.5388
5.76139 16.8064 44.7445
5.16641 15.924 48.8479
5.77192 16.1974 48.0814
5.82066 16.3473 48.3737
6.06016 17.2953 47.5259
5.46588 15.8261 47.7579
6.15508 17.4359 48.1392
5.43029 15.4975 45.4514
5.21605 14.4275 43.1711
5.17829 14.4138 43.2091
5.36918 16.0176 48.3096
5.65856 15.6727 47.8243
6.28166 18.9739 56.3686
6.47542 18.7376 54.2019
6.02344 16.1094 45.7544
5.35144 15.4021 45.8215
5.65817 16.166 45.7995
5.27176 15.5236 45.3098
5.14283 14.9028 45.3795
5.60039 16.672 51.0476
6.31417 18.3431 50.4722
5.46155 15.373 43.3768
4.94518 14.8802 43.6458
4.71467 13.3003 42.2188
5.52367 16.7215 49.2695
5.49221 15.4613 43.6274
4.70321 14.0975 45.5119
5.38736 15.8403 46.3788
5.08471 14.2307 41.3201
4.74307 14.3854 45.4387
5.31294 15.6274 46.3532
5.0411 14.9767 46.8106
5.18154 15.0545 48.576
5.75804 16.1065 45.8015
5.27449 16.0436 47.3016
5.27345 16.0916 49.514
5.56771 16.3967 49.0287
5.27142 15.2749 46.5359
5.33288 15.6698 46.9734
5.27132 15.5887 47.6016
5.12247 14.18 40.5385
4.64507 14.1603 44.1171
5.11532 15.8799 45.0116
4.76325 15.4482 50.5512
5.47172 15.95 49.8553
5.38518 15.4823 45.8741
4.98413 15.636 52.5499
5.57311 15.834 48.0746
5.26966 14.8412 42.6187
4.62243 14.1949 44.8051
5.02112 14.6082 41.4589
4.5225 14.6449 45.3826
4.73686 14.4188 44.9647
4.9896 15.2694 45.7278
4.77336 13.9671 40.3638
4.20838 13.2347 42.2824
4.56896 14.0335 42.2912
4.49017 13.9383 44.6515
4.62477 13.8964 40.6116
4.25823 13.0934 41.0543
4.35965 14.4725 46.89
5.05868 16.1329 50.6029
5.0843 15.4995 49.3383
4.94443 14.1356 44.3972
4.70873 14.0426 42.9613
4.61443 14.7157 48.0233
4.73352 13.3127 42.8974
4.78303 14.745 44.0418
4.72897 15.4465 48.4254
4.76753 14.4392 46.8288
4.82561 14.0965 45.5164
4.89447 15.3606 46.7203
4.66208 14.753 47.9135
4.60783 12.821 38.7943
4.19173 14.3186 46.2439
4.59706 12.8881 39.1703
4.27563 14.3024 45.0295
4.3142 12.579 37.7598
3.82074 12.4137 41.7337
4.29758 13.4338 40.9503
4.10112 13.4217 46.5616
4.5569 12.998 39.853
4.10997 12.9459 43.1857
4.61069 15.2597 49.0776
4.82451 14.0385 41.6286
4.05263 12.9384 44.6901
4.66416 14.6853 46.289
4.72538 15.449 47.229
4.57116 14.8063 51.0662
4.95972 14.5189 43.6134
4.19282 12.615 40.1189
4.00829 12.8206 41.3302
4.05066 12.2756 38.8731
3.73475 12.7676 46.1147
4.55694 13.176 40.5241
4.05324 13.0059 41.3365
4.07098 12.9932 41.7566
4.32477 14.4566 45.303
4.16154 12.3495 38.9635
3.79768 12.0424 41.9439
4.3087 14.5003 47.4007
4.61231 14.3283 44.2036
4.18718 14.0261 46.9732
4.65494 15.5474 49.2296
4.38563 12.9965 41.1429
4.08224 13.3881 43.8386
4.0509 11.7144 38.3942
3.67961 12.0025 41.7277
3.87899 11.6218 38.5417
4.01983 13.3339 40.7773
3.78973 12.2992 41.4078
3.92578 12.43 39.9275
3.85211 13.4012 45.503
4.1714 12.3517 37.0378
3.5122 11.7421 40.4966
3.84184 12.0234 38.5924
3.68424 12.4714 40.3736
3.50034 10.4244 35.9266
3.54644 11.4717 37.0438
3.50143 11.4818 37.4598
3.39586 11.5273 41.8319
3.93257 12.0586 40.6407
3.78968 12.3915 39.8552
3.74593 12.069 39.6139
3.62063 11.8069 40.3492
3.94866 13.1186 43.0087
3.83102 12.1175 38.9078
3.70054 12.6982 41.9476
3.51472 10.9175 37.9232
3.65525 12.1002 38.7481
3.45679 11.1403 37.2705
3.39302 11.6213 39.6552
3.40622 10.5968 36.5432
3.35443 10.4038 35.77
3.51338 12.4666 41.8658
3.68754 12.3862 43.8405
3.84101 11.5127 36.8247
3.39903 11.3981 39.3345
3.7607 12.2102 39.677
3.4558 11.9526 41.7641
3.75494 11.6359 37.0162
3.33576 11.5481 39.0039
3.48129 11.8326 38.1931
3.34482 11.6338 42.9213
3.76266 12.0306 42.288
3.72874 11.7746 40.8998
3.82603 13.1405 43.9701
3.81349 12.0491 40.7519
3.58486 11.6326 37.2731
3.28471 11.2208 40.1573
3.60098 11.7572 39.6991
3.43976 11.489 41.1017
3.61127 11.9131 40.4459
3.67614 12.163 39.6279
3.46114 11.6273 38.1524
3.19698 10.7316 38.5633
3.50061 11.9599 39.1735
3.28161 11.3547 38.4615
3.33037 11.1333 39.0686
3.40954 11.8321 39.6156
3.2716 10.6519 38.0245
3.27214 10.4597 35.7993
3.1885 11.4591 38.6388
3.24668 10.7416 38.9838
3.48809 11.3148 39.0258
3.32194 10.878 38.0364
3.47024 12.4787 42.8503
3.51982 11.8237 40.7678
3.42543 11.4305 39.3336
3.29791 11.3723 41.7099
3.50758 10.7225 36.238
3.1212 10.8809 39.753
3.38504 11.0054 38.8339
3.41296 11.5683 36.7109
3.10692 10.8961 38.2825
3.25445 11.5913 39.0166
3.21233 10.7946 39.789
3.41957 12.0752 43.9165
3.56738 10.9142 38.7685
3.43066 12.0425 37.7814
3.07095 10.5725 38.6821
3.24104 10.8975 38.5848
3.30835 11.6128 41.8471
3.42313 10.5338 36.572
3.20839 10.8661 37.4207
3.10374 10.7564 39.5114
3.22907 10.4844 37.7969
3.32129 11.8316 42.1045
3.54152 12.2103 40.6262
3.2837 11.1809 39.7323
3.29721 11.3698 40.5666
3.41077 11.9033 42.2002
3.42121 11.3436 39.3597
3.23441 10.7095 38.1781
3.27966 11.4003 39.821
3.1726 11.7033 40.2611
3.293 11.0088 38.556
3.12626 11.3745 42.3323
3.50973 12.0504 40.6141
3.25963 11.2895 40.6043
3.3044 11.5732 42.6861
3.53392 12.1165 39.044
3.11086 11.3931 39.9268
3.07545 10.8655 42.8685
3.53676 11.3766 38.5658
3.09104 10.97 39.3601
3.13597 10.0962 37.482
3.11406 11.2789 39.6278
3.27089 12.1152 41.7683
3.22117 10.8886 39.9075
3.17674 11.3327 44.3272
3.58529 11.9678 40.4459
3.20692 11.4246 41.5114
3.21701 11.2188 41.6166
3.23488 10.7764 40.3372
3.38288 12.0302 40.6964
3.1748 10.677 40.3487
3.47758 12.3193 38.4721
2.95573 10.7126 38.0926
2.92181 10.3842 40.3046
3.21347 11.1992 42.8766
3.45332 12.3827 44.2156
3.39608 10.6476 39.9453
3.34314 12.5835 44.0514
3.34553 11.2383 37.6681
2.97064 10.7195 40.2437
3.27802 11.6708 41.6672
3.17246 11.1201 40.7252
3.22818 11.4487 40.6912
3.17302 10.9024 39.9323
3.14507 11.0063 40.772
3.27788 11.5065 41.6286
3.22378 11.7596 42.2591
3.14848 10.3764 37.164
2.90283 10.7245 40.1788
3.1317 10.7068 38.1053
2.99991 11.4737 39.7298
2.91265 9.89837 34.7646
2.75077 10.2063 38.8594
2.99032 11.1426 40.6946
3.07217 10.4373 38.0795
2.94716 10.9795 38.0745
2.87773 11.1777 44.3585
3.2952 10.7569 40.1022
3.17244 10.7176 38.1169
2.93845 11.3866 43.4363
3.25524 10.4728 37.3982
2.88099 11.0451 40.1441
3.01237 11.344 40.2458
2.99798 10.6399 40.5106
3.07103 10.8571 39.5873
2.99426 10.9513 40.7969
3.12215 11.1752 38.6368
2.84896 10.8116 41.9992
3.18025 10.9671 40.5245
3.04107 10.9383 39.8425
3.0174 11.343 43.1186
3.15634 10.0203 37.0998
2.85787 10.6797 39.5025
2.90953 10.1655 39.6764
3.02807 10.801 39.1962
2.89776 10.6086 42.1991
3.19413 10.6391 39.5864
3.04351 10.8448 40.1129
2.99831 10.5337 37.5837
2.87811 11.154 41.5471
2.99809 10.7597 41.1923
3.10529 11.0084 41.4442
3.11178 11.1078 39.8525
2.99003 11.3092 43.3235
3.16476 10.755 39.8281
3.02152 10.9112 38.3942
2.89783 11.6477 44.5769
3.24627 11.7 41.195
2.84685 10.376 40.5603
2.97405 11.0204 39.4299
2.81909 10.4878 41.8222
3.10683 10.4517 37.1126
2.69211 9.56645 37.8562
2.80633 10.193 39.3402
2.88156 10.173 41.1503
3.06216 11.1119 39.1902
2.88507 10.0545 37.6374
2.80949 10.7154 38.6729
2.77691 10.1131 37.7688
2.77283 10.0673 38.7786
2.92458 10.6037 37.7485
2.77378 10.4098 39.3077
2.85228 10.8927 39.9777
2.86994 9.65627 36.6109
2.65896 10.3136 42.3903
3.14235 11.4343 42.7536
3.07615 11.327 40.9827
2.81745 10.0881 40.3997
3.03079 10.8742 38.7554
2.86152 10.8508 41.0601
2.87911 10.1851 41.6069
3.17023 11.7046 41.7093
2.98341 11.1999 42.3715
2.99194 10.5276 41.7723
3.07244 11.4026 40.7517
2.87259 10.469 36.9201
2.57602 9.30414 39.1288
2.88993 10.201 37.993
2.77562 10.4068 41.1218
2.91044 10.5271 38.0887
2.72197 9.93492 35.028
2.44492 9.59024 38.6653
2.74955 10.097 37.451
2.74629 10.7353 42.5038
3.02983 11.0023 39.8813
2.83654 11.011 43.9757
3.00595 9.75111 38.8963
2.96078 11.5766 41.8281
2.92477 11.4158 45.7967
3.19597 11.4363 40.8532
2.81416 10.2124 41.179
2.9122 10.3844 39.261
2.79453 10.5447 38.5051
2.72091 10.7436 42.2752
3.02952 10.9039 39.3684
2.77985 10.9417 44.6732
3.05114 10.8516 42.1046
3.03002 11.9761 42.4044
2.84057 10.2031 42.7073
3.05285 10.8282 38.7755
2.67563 9.91049 36.4793
2.57448 10.0166 40.0362
2.85428 10.2572 38.9876
2.77993 10.9405 43.2082
2.93215 10.5403 40.4811
2.85809 10.467 38.8685
2.617 9.5243 37.7653
2.70569 10.9676 43.1275
2.93302 10.5668 41.1376
2.85841 10.1707 36.9828
2.63337 9.92416 40.3575
2.83555 10.6323 40.1003
2.75769 10.4677 42.0496
2.96966 11.3283 42.4217
2.89675 11.4951 41.093
2.72847 9.97223 41.5111
2.8956 10.2891 40.4978
2.79071 9.87491 36.293
2.59149 10.9892 39.628
2.6215 9.89536 42.4288
2.89864 10.1984 39.0447
2.76949 10.434 40.3829
2.78643 10.7695 38.3143
2.5499 9.75558 40.4633
2.78376 10.4972 41.0128
2.82195 10.5955 40.2426
2.75307 11.059 41.6152
2.84169 9.99458 43.5988
3.06687 11.797 41.1238
2.65796 9.14514 39.0533
2.71148 10.4971 37.5241
2.5186 9.56148 38.5761
2.62453 9.63513 37.3869
2.51568 9.27132 36.8235
2.57931 10.332 37.3734
2.54533 9.88393 40.5064
2.78342 9.64973 39.0432
2.6841 9.95965 39.3336
2.70405 9.75046 37.8776
2.61701 10.1242 36.2694
2.46794 10.001 41.5076
2.79228 9.76006 37.8774
2.61654 10.8454 38.1957
2.52213 9.69996 39.3459
2.68354 9.59291 37.109
2.59658 10.7895 40.7219
2.66878 9.4153 38.4669
2.5996 11.1942 39.9466
2.62887 9.18206 36.2284
2.42036 9.22161 42.0407
2.84666 10.5282 38.5548
2.56636 9.59772 40.824
2.81967 10.8869 42.8524
2.82623 10.1571 41.2433
2.74459 9.84475 36.6495
2.4681 10.3006 40.3058
2.77094 10.2599 41.4532
2.83056 10.5334 40.4632
2.71903 11.1077 43.9646
3.03875 10.1323 36.6694
2.46467 10.0885 40.1144
2.63968 9.48288 39.5642
2.69763 10.3836 36.6288
2.4524 9.85333 39.5873
2.62017 9.92723 39.6267
2.65993 10.1344 38.9158
2.64592 10.3908 39.4254
2.65008 9.9446 40.76
2.72208 9.98276 38.2137
2.51548 9.61016 40.0919
2.65712 9.72573 39.4999
2.61397 10.005 38.8735
2.57874 10.4869 43.0735
2.90726 10.5494 37.9519
2.48564 9.64211 38.8525
2.54006 10.0455 38.4606
2.55218 9.52955 38.4255
2.55415 9.65133 39.6357
2.66032 10.674 43.7445
2.89976 10.351 40.907
2.75413 10.0856 37.3696
2.43813 9.74946 36.983
2.51217 9.98414 39.1326
2.58824 8.8624 35.4
2.36427 9.00127 37.3608
2.47372 9.65399 38.5323
2.55955 9.39613 38.1138
2.54863 10.1623 40.3387
2.61622 9.62545 37.7565
2.49858 10.0241 40.517
2.70609 9.93338 37.0054
2.46504 9.75532 40.2909
2.72699 10.0051 39.4845
2.59642 10.038 39.5147
2.56402 10.2645 39.6711
2.62455 9.8733 38.6283
2.53481 10.077 39.7173
2.6091 9.52066 34.7848
2.23329 9.51836 40.0189
2.59383 10.3025 41.9867
2.7204 9.64293 37.7431
2.54183 10.0708 38.7416
2.52275 9.2259 38.7851
2.59088 10.5349 41.4381
2.74319 10.1879 36.7732
2.42972 9.35401 39.376
2.52372 9.5999 36.2943
2.34114 9.04144 37.8054
2.50487 10.1462 37.0453
2.33721 9.04624 36.8473
2.46339 9.72472 38.6676
2.52372 10.1032 42.2019
2.75229 10.2966 43.0426
2.83377 10.0965 41.257
2.7228 10.6413 36.9741
2.40404 9.4454 36.7342
2.46318 9.83531 41.3123
2.73621 10.0444 37.6876
2.4921 9.89877 38.4088
2.50337 9.76544 42.6537
2.78678 10.2929 41.1595
2.66569 9.88034 39.124
2.553 9.72836 40.6873
2.66052 10.54 40.7467
2.65044 9.72619 35.6227
2.33201 9.10121 40.1881
2.58656 10.2874 38.8595
2.51853 9.16037 37.4912
2.46104 9.37973 37.1954
2.47396 9.79556 39.5179
2.547 9.97182 36.8557
2.41096 10.1113 40.8501
2.62775 9.25003 39.8523
2.59015 9.63924 36.6445
2.39251 9.57515 38.1899
2.42837 8.88052 35.7943
2.40797 10.1491 40.6639
2.63177 10.7993 40.196
2.57411 9.9822 38.7267
2.55386 9.47987 38.7841
2.51899 9.81489 41.8405
2.70689 9.72132 38.7697
2.51643 10.2192 39.6002
2.58767 9.51073 38.3253
2.5258 10.2304 40.7921
2.64738 9.66957 40.5443
2.63715 10.1694 39.6213
2.57543 9.31198 37.1497
2.4639 9.43838 37.5433
2.46843 9.71519 43.2766
2.80523 10.6428 38.6621
2.4887 8.99872 37.8003
2.44627 9.71187 39.0535
2.60571 10.5316 40.3528
2.62036 9.58119 39.4457
2.48082 10.5246 40.8822
2.66556 9.95415 38.3634
2.47205 10.452 43.3291
2.76152 11.1536 40.2053
2.577 10.0222 41.7688
2.70468 9.93493 39.4251
2.59431 9.18005 40.7551
2.65129 10.0783 36.7128
2.39104 9.85326 40.001
2.58061 10.0921 39.4961
2.58311 9.95755 39.284
2.58354 9.917 38.4186
2.45409 9.6562 37.993
2.51333 9.33115 37.4228
2.39064 9.87923 41.0925
2.65659 9.65508 39.3553
2.55549 9.16988 37.8086
2.4799 10.0838 38.2665
2.48729 9.78081 41.4849
2.68556 10.8783 39.9757
2.58182 10.126 39.7045
2.52604 9.31292 39.3034
2.51381 9.98225 37.8767
2.48573 9.43773 38.9696
2.52919 9.18998 41.295
2.6591 11.114 41.4093
2.68901 10.6602 39.3356
2.55331 9.74655 40.1346
2.58559 9.83957 42.6073
2.70901 0 0