# pn-170911/RbIIA-33-RbII-1280-1959.psd
# Power spectrum* (dif=0,1,2) (really just |FT|^2)
# NOTE: only the first half! (symmetric)
# weeks: 1280-1959
# 54 clock-days, 29 excluded
# PSD: 1441
328960 2.8699 0.0110342
8.22173e+06 179.853 0.0228306
1.02456e+07 94.7741 0.023848
3.01797e+06 73.4628 0.0210049
2.19859e+06 96.4762 0.0314478
1.73282e+06 101.983 0.0295619
1.02694e+06 60.4821 0.034893
670657 46.5654 0.0322944
490656 23.9517 0.0270978
291067 10.8245 0.0290879
171404 8.04542 0.0323531
208428 7.99702 0.0334695
106388 12.7051 0.030988
172803 48.0174 0.0337183
118647 18.1008 0.0391197
141375 12.7713 0.0357662
90581.7 8.54988 0.0271916
73211.7 9.01851 0.0341957
82599.5 9.40274 0.0389831
78545.3 10.2788 0.0258024
53504 7.51912 0.0313242
97828.8 5.87602 0.0328434
61241.7 4.48153 0.0351308
56719.2 5.79932 0.0428896
54306.5 5.11591 0.032431
46583.4 6.69484 0.0409933
29612.5 4.04354 0.0329949
39281.4 4.68764 0.0404489
29066.4 9.44835 0.0491254
28676.2 6.22734 0.0412252
16167.8 6.83015 0.0546813
26891.3 4.11281 0.0390182
24950.1 4.08136 0.0487957
17133.6 4.3225 0.0481314
21076.8 5.00458 0.0378963
24081.6 4.32516 0.0436083
18484 4.3106 0.0322732
14067.3 4.24757 0.050228
15297.5 3.45578 0.0414232
19410.5 5.10119 0.0431039
14263.4 4.67699 0.0631893
10316.4 3.29668 0.0455074
14745.1 4.73809 0.0694322
11165.9 5.67231 0.0561881
13924.6 7.58216 0.102721
14002.1 3.83557 0.0681833
15275 5.69939 0.0812982
18094.2 3.97671 0.0584932
13320.5 4.39673 0.066837
18093.1 4.91952 0.0769412
16597.8 5.23812 0.0909381
14904.2 3.54334 0.0634743
10228.7 3.45828 0.0718971
12525 2.53303 0.0637163
10465.1 4.67938 0.0854337
10901 4.32749 0.0739429
7586.47 5.02531 0.0907438
11883.9 3.70313 0.0907683
13023 3.96876 0.082784
7043.26 3.00462 0.0636309
9451.29 4.4335 0.110239
10900.2 3.611 0.0855758
10201.9 3.80149 0.0805006
8214.95 4.563 0.11902
7665.52 4.23968 0.113683
10014.9 4.29914 0.108051
6315.16 3.15575 0.0751299
6733.39 4.31398 0.115529
5969.38 4.02276 0.121051
6262.41 4.24092 0.119874
5766.4 3.10315 0.106344
4757.69 3.20669 0.0851629
6630.48 3.45834 0.118178
7035.34 4.48256 0.119166
6421.25 3.09033 0.105725
7681.25 4.58003 0.140497
6612.93 3.09541 0.103341
6889.21 4.11171 0.14266
5627.4 3.86828 0.144116
5053.69 4.18706 0.1548
5308.98 4.31075 0.140586
4867.9 4.17673 0.129774
3980.16 3.85836 0.141191
3968.58 2.98885 0.122977
4546.45 3.98567 0.155174
5695.08 4.21653 0.167625
3390.82 3.22178 0.126682
4390.43 2.94352 0.11877
4971.65 3.97473 0.148597
4345.67 4.62392 0.192945
2715.79 3.69231 0.171591
4610.96 3.91234 0.159552
3464.48 3.70346 0.163299
2822.9 3.5114 0.166615
2868.1 3.50942 0.186772
2816.96 3.58764 0.194447
2708.89 3.64373 0.185663
3227.12 3.6998 0.187698
2946.73 3.87432 0.193032
3277.57 3.10829 0.171643
2913.43 4.52273 0.216191
3425.66 3.95219 0.203713
3397.6 3.95006 0.209443
3813.54 3.44145 0.221718
3349.7 3.3411 0.198397
2662.83 4.97506 0.284505
2379.73 4.19084 0.260103
3495.09 3.73222 0.243
2039.27 4.5983 0.304774
2522.81 4.29989 0.243994
2123.27 3.53116 0.213495
2933.49 3.30869 0.230665
3063.9 3.87735 0.27544
1776.98 3.87339 0.258153
2648.57 3.16293 0.210997
3363.28 3.62337 0.231437
1490.38 3.77936 0.269063
1948.2 3.03361 0.217849
1427.23 3.67612 0.2753
1449.95 2.73976 0.188458
1933.94 4.5847 0.315211
1014.03 3.14525 0.217233
1566 3.38803 0.247926
1674.98 3.4322 0.259852
1367.62 4.13731 0.329922
1688.74 3.75529 0.289502
1685.97 4.16772 0.303869
1298.44 2.77329 0.254688
1279.91 4.44129 0.391769
1249.01 4.13117 0.366768
1838.78 3.87613 0.333795
1529.24 4.54042 0.357864
1148.59 3.43396 0.296715
1644.55 4.03611 0.360754
1255.89 3.97311 0.366338
1321.2 3.36512 0.286173
1296.08 3.36534 0.300125
1459.44 3.91987 0.358288
1538.14 4.25666 0.422922
1004.79 3.47968 0.354789
1337.63 3.7375 0.389376
1952.55 2.44868 0.265509
945.461 4.20255 0.402159
1525.1 3.36617 0.372225
1259.38 3.77781 0.397551
1458.44 3.23728 0.364333
936.618 3.91808 0.424817
1429.93 3.44755 0.414514
955.555 4.71773 0.519314
976.136 3.58746 0.435209
1108.44 4.03082 0.493433
1079.66 3.66975 0.411992
936.392 3.0718 0.362843
1037.09 4.11028 0.49653
964.155 4.4624 0.506354
1190.69 3.06791 0.403846
717.286 3.38416 0.41243
1311.09 3.47285 0.389732
1073.92 4.08167 0.517564
637.648 3.12382 0.425059
804.51 3.8398 0.510364
667.523 4.58273 0.58933
930.727 3.6755 0.48599
803.227 3.87385 0.530041
816.381 4.44003 0.646883
870.275 3.73601 0.47482
659.547 2.60693 0.357451
571.366 4.03512 0.561276
911.906 3.40549 0.467188
618.733 4.07382 0.546466
718.472 3.3915 0.51929
593.867 3.61653 0.52013
761.939 4.37545 0.629403
1255.31 3.02707 0.466544
722.691 4.0411 0.590468
807.886 3.14712 0.493358
938.668 3.6178 0.467418
871.696 4.1805 0.674512
813.671 4.04027 0.655441
815.196 3.57304 0.584827
852.077 3.57703 0.611582
1063.11 3.98816 0.599423
678.69 3.95559 0.678358
916.323 3.46569 0.545409
850.821 3.41971 0.562191
1042.51 3.59529 0.61359
960.115 3.72195 0.608352
861.723 4.28087 0.760366
725.657 4.55003 0.695464
950.696 4.54624 0.776382
600.072 4.5366 0.736089
815.516 3.69146 0.697221
679.862 4.32342 0.78808
688.356 4.3639 0.790769
753.952 4.40236 0.812227
710.962 3.79401 0.682387
759.07 3.34879 0.638291
1025.36 4.10581 0.745933
584.703 4.2127 0.814899
1028.32 3.56925 0.675686
764.581 3.47386 0.621673
846.021 3.82623 0.750521
682.952 3.48205 0.654132
907.127 3.56014 0.724166
1026.8 3.17114 0.654198
583.384 4.46397 0.892269
749.311 4.07024 0.839788
1013.24 3.30394 0.703929
633.343 4.22708 0.879228
892.023 3.93781 0.844166
690.043 3.84809 0.81324
827.405 4.65626 0.980984
949.86 4.06487 0.900384
788.439 3.35673 0.704071
865.442 3.65443 0.842373
899.712 4.20413 0.935148
705.66 4.15695 0.93085
572.237 3.48863 0.812136
545.262 3.10662 0.805863
586.977 3.89041 0.909855
601.308 4.27162 1.04919
685.564 4.0996 0.889799
724.02 3.91213 0.866777
773.299 3.4283 0.744047
751.304 3.5143 0.905007
719.074 3.68891 0.814357
745.25 3.60322 0.852919
855.254 3.68493 0.979432
674.927 3.58568 0.813207
537.437 4.12919 1.05803
849.173 4.14803 1.12594
684.971 3.68345 0.965858
553.54 3.97613 1.01846
798.897 3.96886 1.05295
525.516 3.31267 0.87584
692.315 4.18404 1.13773
566.448 2.99841 0.794579
731.986 3.09066 0.868029
1048.03 3.26182 0.831621
775.671 4.644 1.2424
642.707 4.35377 1.19835
956.238 3.18623 0.878068
519.392 3.35233 0.961369
631.471 4.79111 1.39288
471.874 3.97317 1.08075
429.181 3.8215 1.09204
538.655 3.59514 1.10795
328.845 3.23759 0.905444
472.492 3.08791 0.895301
515.776 3.1277 0.927556
345.384 3.62584 1.00292
542.449 3.98198 1.15339
404.467 4.58811 1.42971
585.655 3.47668 1.05106
507.336 3.26501 1.03334
275.398 3.03864 0.938523
682.789 4.25504 1.23333
414.966 4.40217 1.33744
330.3 2.84869 0.865868
451.484 4.02339 1.28797
350.047 3.74086 1.27612
560.173 3.7202 1.20203
349.337 3.65389 1.12468
428.781 3.81967 1.1857
625.993 4.09471 1.33292
457.7 2.93695 1.02963
537.383 3.66105 1.2661
673.481 4.45879 1.47691
391.866 5.29469 1.82608
599.92 4.66712 1.59489
439.233 4.49925 1.57332
357.539 4.51346 1.51144
457.375 3.74017 1.33906
420.212 4.76165 1.69495
280.183 4.10616 1.38008
467.285 3.33838 1.25011
246.346 4.02482 1.43139
369.237 3.45785 1.18058
255.316 3.83295 1.37204
419.308 3.32381 1.34047
431.012 3.43941 1.22015
296.098 4.05474 1.50183
303.92 3.19627 1.06858
322.091 4.50691 1.66699
272.686 4.8917 1.90171
247.573 4.11956 1.61443
150.116 4.54125 1.72289
387.723 4.31766 1.63909
267.618 3.7199 1.42043
177.493 4.75327 1.87682
413.16 4.5915 1.76043
235.347 4.54761 1.7737
223.652 3.3432 1.33139
315.678 4.4597 1.79913
275.592 5.13637 1.93508
322.028 4.56352 1.84253
337.501 3.39531 1.35139
220.907 4.01655 1.66313
273.277 4.95236 2.1179
340.078 3.99712 1.48407
187.402 4.1268 1.83306
266.655 3.62132 1.5652
206.094 3.72309 1.50536
321.764 4.30881 1.79485
280.938 3.89384 1.73711
227.284 4.25803 1.75208
281.001 3.81364 1.69624
272.274 3.42432 1.4949
213.345 4.43174 2.02423
401.371 3.14983 1.30277
271.172 3.94271 1.74039
281.897 5.68915 2.55913
282.849 3.58637 1.63671
335.864 4.73566 2.14269
191.209 3.76978 1.69119
294.541 4.79866 2.04607
256.795 3.97076 1.82765
244.913 3.56806 1.68528
174.006 3.8191 1.8385
322.113 4.29853 1.96499
247.691 4.48777 2.03833
243.8 3.24471 1.44119
336.477 3.53298 1.70738
347.478 3.57377 1.76723
228.467 3.62882 1.74034
224.76 4.27204 2.02396
227.621 4.28874 2.29573
253.572 3.93633 1.8582
234.264 3.88496 1.90132
160.195 3.94685 1.96275
246.059 5.25141 2.5597
223.812 3.38838 1.94179
215.583 4.13845 2.05628
294.085 5.33716 2.79846
183.521 3.63563 1.87832
274.329 3.96197 1.97403
282.421 5.35304 2.7769
241.414 3.68538 1.82854
456.352 2.80544 1.45563
284.611 3.51605 1.92909
220.115 3.46733 1.84107
367.919 4.79584 2.48147
197.668 3.85862 1.94826
299.311 3.87205 2.2843
180.651 3.02998 1.69387
297.092 4.21188 2.28815
374.63 5.16428 2.59857
163.387 3.2204 1.88355
299.274 4.29219 2.2633
323.046 3.30245 2.07046
232.32 4.31564 2.39301
272.915 4.95738 2.60368
230.213 4.89699 2.8755
349.582 3.93039 2.23081
260.16 3.54401 2.10339
256.008 3.72984 2.12378
321.703 4.19245 2.46338
295.332 3.22984 1.7765
208.837 4.04539 2.45171
245.4 3.9014 2.39167
261.307 4.11545 2.50397
318.415 3.85698 2.39798
333.017 5.19206 2.92705
333.168 3.31391 2.0737
343.765 4.42783 2.43052
347.421 4.03315 2.35279
246.839 4.83767 3.02038
360.238 3.98403 2.26999
244.426 4.21535 2.88437
254.357 4.36671 2.6733
282.642 4.04227 2.40146
202.317 4.78285 3.07098
347.826 2.9114 2.1136
252.133 3.94049 2.41653
191.525 4.13234 2.6806
366.516 3.98684 2.40798
193.922 3.15567 2.05196
333.249 4.08752 2.53523
198.848 4.25698 2.8683
233.741 4.3412 2.74108
343.992 4.46815 2.96105
175.675 4.06136 2.69424
220.133 4.46302 2.73456
202.86 3.58738 2.68482
159.945 4.26486 2.81273
299.132 4.06961 2.71077
167.978 3.82931 2.40824
290.395 4.7538 3.20922
273.9 3.49379 2.29978
205.91 5.26563 3.58136
412.551 4.61231 3.19631
272.831 4.20274 2.89319
236.151 2.98541 2.23992
296.973 3.75351 2.63582
193.926 4.21287 2.87867
351.096 5.13107 3.77368
220.298 4.8745 3.4574
217.846 3.80682 2.47639
261.788 4.90353 3.56518
268.675 4.2093 3.00833
258.928 4.22131 2.89119
193.266 3.69099 2.8151
209.077 3.71394 2.43898
324.797 5.22751 3.92733
195.958 4.19701 3.07622
182.856 4.50498 3.15202
222.35 3.00809 2.35318
177.55 3.2618 2.41523
167.857 4.55817 3.80889
176.902 4.04416 2.6238
175.603 5.02422 3.62445
190.184 3.64922 2.69833
137.557 4.0881 3.16308
241.709 4.52147 3.51602
230.66 3.77661 3.04797
129.36 3.84995 2.93039
205.186 3.79887 3.0551
185.96 4.28408 3.29172
207.687 3.48774 2.75722
243.089 4.4233 3.35067
98.6903 4.87636 3.57761
198.714 5.03169 4.18808
183.654 4.69454 3.46871
97.3862 5.50878 4.3622
204.239 3.99831 3.44827
139.308 3.40733 2.51165
150.809 3.47597 2.66848
160.083 3.65874 2.86772
158.802 4.73011 3.70366
296.85 4.20748 3.67184
125.61 5.24226 4.55016
175.257 3.67044 2.81564
207.042 4.33317 3.50708
183.668 3.99517 3.63291
133.671 3.98411 3.23832
146.789 3.74073 2.88005
110.708 4.71908 4.23621
135.887 3.82271 3.37034
159.458 4.37106 3.56668
183.767 4.46141 3.53942
133.018 4.10099 3.55699
172.103 4.0359 3.36625
177.66 4.38262 3.98808
155.746 4.78066 4.44265
128.618 3.22049 2.86682
221.781 4.57464 3.7731
126.802 3.76578 3.52117
144.45 4.59176 3.84704
131.567 3.6815 3.22671
99.9799 3.70511 3.16308
129.328 4.72711 4.42972
88.8459 4.81281 3.85121
134.668 4.66486 4.25611
148.12 4.08592 3.47271
78.7608 3.63155 3.05157
111.075 4.16674 4.16703
192.985 3.92846 3.79583
88.0031 4.19147 3.44833
117.415 5.12461 4.91778
113.681 4.16492 3.80119
110.36 4.6874 4.43117
168.286 4.3152 3.87394
139.738 3.59183 3.35652
106.232 3.59635 3.42805
139.723 3.65146 3.21924
133.515 3.63127 3.64817
106.957 3.5393 3.35399
147.423 4.74793 4.50057
111.623 3.80431 4.00465
131.214 4.67226 4.46412
116.376 4.40943 4.12801
127.403 4.53132 4.87513
135.047 4.89156 4.64048
136.223 4.84308 4.71027
105.646 4.56256 4.17713
165.708 4.71748 4.65379
96.2767 3.79939 3.66531
134.171 3.82397 3.60511
114.253 4.57869 4.59924
122.719 3.87517 4.27333
130.4 3.73378 3.43557
158.359 5.10348 5.3713
140.236 5.16264 5.43357
111.682 3.93559 3.58663
119.156 5.97999 6.06728
205.315 4.06353 4.51176
86.9035 3.32031 3.78193
205.444 3.24408 3.39835
148.929 3.54097 3.25156
104.108 4.06347 4.48633
166.679 4.0686 4.08178
182 5.47336 5.64246
151.731 4.34713 4.89548
125.042 5.25109 4.93381
124.281 6.02481 6.2728
175.988 4.7221 5.23237
175.512 5.43325 5.86218
115.127 3.83791 4.31799
137.866 5.40419 5.47836
199.068 5.42963 5.99606
103.697 4.17849 4.65243
170.989 5.363 5.95412
128.803 5.37196 5.49157
137.474 4.24645 4.77298
184.544 5.07865 5.36206
89.8043 5.33607 5.75971
144.597 5.16549 5.80786
95.4167 5.19158 5.6953
120.468 5.09325 6.10517
169.486 4.99894 5.22711
101.991 3.44709 3.79966
178.775 4.99827 5.28746
136.244 3.99798 4.16716
131.129 3.54886 4.14782
238.804 5.49878 6.58997
126.262 3.70369 3.83163
174.209 4.90613 5.55851
147.05 3.56765 4.70395
137.292 4.89888 5.3577
235.36 3.90611 4.70055
93.7486 6.89335 7.82496
189.885 4.55346 5.44695
187.91 3.71288 3.95825
109.497 4.06018 5.2693
180.408 4.20441 4.92811
150.181 4.28589 4.87194
181.68 4.02865 4.33992
208.864 4.0278 4.85644
122.759 4.19786 5.42163
234.394 3.78836 4.9419
162.64 5.64235 6.87968
135.502 3.71084 4.46039
147.768 4.84367 5.22532
122.82 4.86764 5.74687
117.56 4.54267 6.00318
112.438 5.48364 6.88026
97.795 4.61995 5.95102
137.499 4.43564 5.59109
107.676 4.84011 5.41167
156.506 5.39596 6.00314
148.443 4.05447 5.40242
113.843 4.46168 5.84726
117.877 4.54975 5.85172
123.464 4.69109 5.44346
136.721 4.52182 5.5504
137.691 4.46838 5.56955
120.765 3.68922 5.01576
106.669 3.85081 4.83613
178.789 4.57961 5.77526
106.759 5.06769 5.77806
107.88 4.34666 5.87535
154.538 4.01059 5.54151
113.096 3.7128 5.25653
195.206 4.53118 6.37959
128.227 5.13793 6.43476
155.163 5.76877 6.69359
167.746 3.69768 5.00755
135.874 3.78809 5.45502
158.319 4.28119 5.72345
104.381 5.53177 7.0383
112.955 4.55518 5.93132
135.769 4.54815 6.8113
69.7549 5.09595 6.04006
158.39 4.78872 5.70331
83.4005 4.65534 6.46971
87.8085 4.97134 6.65617
127.019 5.11365 7.14877
126.573 5.06866 6.82098
140.556 5.73063 7.40618
83.1385 5.23969 6.71605
84.3856 4.175 5.91634
158.373 4.57291 5.85023
94.5296 6.1193 7.53015
85.9938 5.23829 7.93024
58.9688 5.01494 6.90887
158.11 5.70929 7.51892
101 6.01845 8.59117
69.2396 4.7006 6.74573
146.348 5.6359 7.09564
97.6793 4.80652 7.08268
91.5306 6.22364 8.09835
117.141 5.20187 7.74381
110.896 4.32465 6.48153
90.2331 4.66171 6.2498
90.7011 5.26342 7.44863
74.2382 5.25227 7.24021
80.126 4.25848 7.45822
105.998 5.42715 7.30258
55.1125 4.93482 6.27592
82.3259 4.4061 5.6629
75.1876 5.09355 7.19558
75.6274 5.0724 7.00261
76.4514 4.25373 6.15333
71.7443 6.30199 8.92776
69.3615 3.78308 6.76093
78.7312 5.1314 6.86658
93.9573 5.00611 7.03529
101.114 4.57406 6.28845
87.6388 4.63353 7.12639
105.802 4.69197 6.89091
80.4325 5.31179 7.11588
99.4591 4.64084 6.72717
69.5883 4.50171 6.97127
79.1368 5.12108 8.18411
95.2359 4.2689 5.78933
120.163 5.55561 7.50102
46.5018 4.48403 7.98208
95.1341 5.52829 7.42022
70.1721 5.03021 9.17873
88.9573 4.28215 5.64671
94.838 5.96931 8.91971
112.64 4.67028 6.92615
60.321 4.84384 6.80044
59.8205 4.24737 6.89662
82.8555 4.4267 7.40002
82.8579 4.52765 6.71645
65.6729 5.8975 9.1104
57.5716 4.77981 7.51848
73.4288 4.8366 6.72454
84.2379 5.68105 9.32553
73.1994 5.1814 8.26942
93.2399 4.24568 6.7957
72.3951 4.75521 6.95464
64.2243 3.76657 6.41593
95.8196 5.09336 7.53874
87.3259 5.25377 8.57668
93.7902 3.81019 5.41073
95.1839 3.59379 6.69892
84.9746 5.57087 8.66116
88.364 4.63904 7.04138
90.5064 4.29524 7.21543
69.9372 4.47273 6.92948
54.3459 4.48553 7.22554
91.5948 4.56203 7.9549
83.61 5.12145 8.25982
61.8239 4.05917 6.56447
77.7374 4.29442 7.68715
101.358 5.47187 9.15705
94.24 4.69881 8.00983
72.0318 6.26579 10.1151
92.2259 3.81345 6.72763
98.3121 5.23515 7.70939
57.2957 4.26451 8.37834
103.337 5.50915 9.62666
65.2661 5.64746 7.8614
114.006 5.16898 9.47592
75.9025 6.81276 10.7986
73.9666 4.23215 6.41387
145.45 4.44244 7.84178
64.7367 5.9365 10.9593
112.813 4.88069 7.68659
132.486 4.0339 7.53019
73.4962 4.92023 7.91861
171.095 4.9141 8.5347
77.4956 4.78485 7.70466
114.78 6.62871 11.6356
113.933 3.86219 6.91376
78.085 4.12222 8.04615
113.607 4.90159 9.17878
68.563 5.64713 8.45366
90.5995 5.14503 7.98701
97.9251 4.49331 8.26641
48.1844 4.21742 7.98531
140.375 4.57253 7.86436
76.0158 5.24684 8.42583
69.5067 4.7373 8.82809
92.5557 4.22807 7.7542
88.1812 4.7607 8.3593
98.4197 4.4106 7.85741
74.6959 5.41106 9.26437
65.8919 5.28217 9.21912
94.77 4.24199 8.31691
89.6427 4.06654 7.59558
92.7274 4.86531 7.89155
96.6994 5.26958 9.54539
106.224 5.06918 10.2542
91.3651 4.54722 7.52255
108.678 5.20699 10.8782
127.029 5.42769 9.48982
123.185 4.52974 8.54068
114.764 5.14353 8.88221
89.6626 4.20091 7.68159
137.998 5.93819 9.20061
86.2948 6.16637 12.516
81.2388 6.22185 11.1102
108.221 4.66507 8.99398
70.2242 5.36215 9.87208
163.944 5.17335 9.85884
79.6579 5.01632 8.98855
80.5516 4.71155 9.5766
136.836 6.66481 12.1875
83.2894 6.41351 11.7022
105.615 4.93623 9.15253
76.429 5.75323 11.5997
62.5323 5.82173 9.90207
99.1177 4.40324 8.86792
56.2821 5.12164 9.83317
92.5804 5.53072 9.63395
78.0319 4.32476 8.03035
74.6219 4.04659 7.67717
85.8637 5.68873 10.6623
83.8931 4.64737 9.38757
107.988 5.16643 9.64953
74.1488 4.65284 8.97077
78.0816 6.05457 13.1067
138.528 5.14211 9.20387
88.9245 4.44352 9.19776
94.8344 4.39619 9.88712
72.8107 4.9647 10.0756
83.9523 5.72234 9.37521
94.9122 5.11106 10.1327
63.1543 5.06126 9.65141
81.2768 5.89235 11.4127
75.8954 6.04319 10.5782
82.917 5.35336 10.131
73.9454 4.76891 9.52167
94.1568 4.53913 9.76758
101.245 5.29841 10.5609
55.3139 4.93683 11.4512
102.21 6.9098 11.8283
74.1333 5.12434 10.6506
87.1908 5.20475 10.7788
66.7341 4.01863 9.44258
51.3195 5.79171 12.4505
66.2493 6.27906 11.1497
56.5186 4.87693 10.1814
49.957 5.01256 8.4367
78.7378 5.72361 12.4037
58.6853 5.30214 10.7794
92.6973 5.36984 10.4654
78.225 5.80786 10.6477
69.4693 5.44458 10.7283
58.0756 4.77336 9.86839
96.2279 5.16692 11.7756
81.8704 5.86682 12.2193
66.3252 6.09627 10.456
73.7424 5.17108 9.81718
64.1485 5.39799 12.911
64.3911 5.74813 12.4691
75.2382 4.56247 9.51636
55.5534 4.03916 7.5763
70.6199 6.09882 11.9865
46.4143 4.11224 10.5552
48.7175 5.81347 13.1795
89.0625 5.09779 10.5344
39.4512 5.80745 11.9921
52.6439 6.41365 14.1654
65.0495 4.65723 11.0722
59.8357 5.47449 10.3568
45.7922 6.08309 14.5503
49.9028 6.61761 13.5362
48.7552 3.79273 7.50864
38.8146 5.4839 11.8209
47.286 5.30734 12.0395
65.7444 6.29645 13.133
42.3424 4.356 9.35728
52.7187 5.12123 9.99181
63.5184 6.7143 15.7129
46.4472 5.53829 10.6625
67.3762 5.28447 11.7194
43.6336 5.38345 13.6466
66.016 5.34498 10.9143
52.8969 4.6133 11.2384
65.7597 6.80855 14.2068
61.8718 5.4978 13.6465
47.1574 5.33121 11.9049
49.519 6.40354 12.9872
66.6029 4.59267 10.4649
47.3325 5.02613 10.8705
72.2047 5.06387 10.3723
55.4069 5.6632 13.1893
50.562 4.96774 11.2403
57.5131 5.87165 11.6293
77.3423 5.1317 11.7269
43.1243 5.986 13.2878
68.0585 5.73012 13.7503
51.5694 5.21907 11.451
60.9307 4.79574 10.9517
50.496 6.90464 13.8959
91.3774 6.47651 15.3334
66.4813 5.88175 15.0313
47.1292 5.65966 12.3984
94.5118 6.86624 15.3719
61.6872 5.79344 15.6326
63.4073 5.3595 11.6138
56.4695 6.66388 15.6276
42.1556 5.23452 12.581
112.411 5.71949 11.1169
42.3076 6.65287 14.2611
54.1074 5.461 13.8496
80.8199 5.3294 12.2754
52.9716 5.44464 13.6822
74.9326 6.03589 12.0925
56.3426 4.75919 9.12471
58.6666 5.96269 14.9937
50.8398 6.10234 15.7083
60.1907 4.63864 12.1814
76.464 5.27298 11.1116
44.7787 5.55075 12.516
63.6643 4.36961 9.33562
75.5947 5.98026 13.9904
49.209 4.8773 10.9109
93.7869 4.99945 12.7807
49.6805 5.55427 14.2425
65.3991 5.75717 13.0519
81.4679 4.00894 10.4957
75.8935 6.87855 15.403
64.8032 5.0864 9.71897
54.1381 5.79253 14.2105
83.3935 5.99286 14.1551
64.0567 5.85717 14.4026
78.2648 5.98067 13.4405
59.1301 5.05234 12.8043
81.8012 4.38582 11.5007
89.13 5.20263 11.4982
66.7935 4.76783 12.99
95.6027 7.73979 17.0805
82.7669 5.48125 14.6461
60.9465 6.09945 14.4597
99.2741 5.39435 11.9255
54.6279 5.69135 14.0646
80.7849 4.35274 11.2032
54.5319 5.39374 12.1366
57.686 6.84857 17.6314
69.4899 5.72972 13.8452
54.008 5.53372 11.4427
63.1973 5.1838 13.826
76.0428 5.64175 14.7523
72.3279 6.3203 16.7474
81.3919 5.51432 12.4606
45.9139 5.94237 11.4617
93.265 5.05502 12.3874
73.5036 7.19642 17.9372
52.5988 4.97141 13.2452
89.5187 5.41791 15.1263
47.0889 4.71495 12.9504
100.78 5.37135 12.4284
57.3778 5.52429 14.4721
48.1724 5.65056 13.0116
101.147 4.15556 13.4729
61.7304 5.5659 14.8623
74.9632 6.03651 12.3721
79.1125 6.25357 13.3929
80.3134 5.71645 15.3493
86.5175 5.66145 13.1681
90.5705 5.39613 13.3209
70.9935 5.46079 15.4639
53.0817 4.99071 12.0215
87.434 5.06449 13.4381
56.3161 4.9683 12.1719
39.9539 4.94766 12.7397
88.4211 5.33873 11.6763
40.8773 5.5846 14.2482
50.4897 5.08303 15.697
76.1202 5.84285 13.3376
67.3708 5.48455 15.1509
70.1163 6.48238 17.9056
51.0444 5.81804 14.6125
61.8974 6.10944 15.8594
73.1371 4.95339 13.074
58.17 5.66708 14.7754
57.0639 5.65976 16.4941
47.3424 7.66277 17.0376
151.087 5.23647 15.2831
44.6924 6.47208 17.1403
82.9512 7.24731 16.3856
103.856 5.78529 17.4861
44.0774 6.03365 17.2433
76.6092 7.13744 16.8941
67.2649 6.10389 16.6866
70.2894 5.64754 14.6525
68.4901 6.13015 15.3243
49.1421 6.92451 16.15
57.4057 5.98224 17.2932
48.5736 5.06138 12.1863
51.1368 4.7963 12.6525
40.57 7.33507 17.8896
45.7049 5.59127 17.3305
54.4093 5.42677 13.4431
41.3208 5.84449 15.7467
52.906 5.29681 15.2628
51.5144 5.27465 14.3751
40.1628 6.01735 15.8586
46.6214 5.8107 14.2538
38.6251 5.02084 12.9811
47.0872 5.76184 15.286
41.7817 5.20814 16.5001
45.1055 6.26889 17.0851
48.2488 5.11972 13.4642
38.203 6.06826 16.8794
39.1389 5.31429 15.2461
51.4735 5.07328 14.2863
44.1739 4.87877 15.2658
71.3568 6.63626 17.0365
31.9571 6.81539 19.1393
66.3386 4.60422 13.8534
46.0049 5.42568 14.5606
68.8226 4.38659 11.1784
59.3726 6.89542 17.5151
60.8923 5.63741 16.042
49.2853 6.03666 16.6363
48.7462 6.36502 20.2862
42.0636 4.98949 12.8292
55.5111 7.40696 18.3631
37.3242 6.675 17.7569
37.6035 6.0613 16.6332
58.1834 5.94919 15.9622
33.3049 4.45539 12.7359
44.5931 6.10526 16.7173
44.6497 5.33832 14.3713
35.7171 6.36838 19.635
39.8572 6.29897 13.1588
40.7625 4.23429 13.4492
40.9921 5.22657 13.8491
45.9633 5.22234 13.377
42.4709 4.21198 15.1366
50.2345 5.68399 16.9701
35.8305 7.02873 17.1406
44.368 6.04773 17.192
41.9151 5.4206 17.6881
29.8485 7.83673 21.1247
46.4459 5.7927 17.4946
38.2689 5.68502 16.1869
31.3129 5.61862 15.3296
47.3562 5.13705 15.0368
41.7267 5.54143 15.8864
42.5098 4.94398 15.2803
45.8645 6.94537 18.5818
46.6054 5.96151 19.1304
65.9019 6.02336 15.7242
42.5891 5.65248 16.5258
59.1103 4.87666 16.3051
51.669 6.95598 19.0579
62.9482 6.42684 17.8134
50.5539 5.7425 15.0252
47.716 5.04226 14.1827
64.1274 7.13005 18.1799
36.342 5.86631 15.67
58.4022 6.19779 18.6401
62.5235 5.63323 18.2619
49.8549 7.91436 21.0135
64.5137 5.62 16.7002
37.7434 7.47038 23.7821
68.7409 7.42446 20.4752
39.3597 6.35487 20.2457
65.5977 6.01898 17.1641
46.9581 4.87365 14.4015
42.0946 5.5306 15.5464
54.8987 4.95048 15.5957
37.9722 5.12347 14.8032
40.0744 6.37666 18.1234
81.486 6.78971 20.173
43.8125 6.02677 21.2441
58.5171 6.91108 18.189
47.5463 7.80739 19.8269
65.208 4.41239 13.2642
45.8198 6.05261 17.7774
36.3077 6.34448 16.3363
53.4215 7.16404 21.2092
49.0132 5.70389 19.5466
51.0178 6.6503 19.1815
52.1305 6.14827 19.1932
48.1587 5.02145 16.7756
84.5477 6.13413 13.9669
43.4625 5.12825 16.7348
61.1286 6.46445 21.8803
79.0785 5.1625 14.8795
62.0217 5.44558 15.3116
63.3662 4.09113 14.5354
46.7971 5.61281 20.5502
83.0832 6.17057 15.27
52.4833 5.53942 14.9811
59.1541 6.1029 19.282
55.2596 5.36394 16.7474
34.8906 6.18815 19.4746
81.5764 4.93078 15.0132
36.6632 5.26067 16.2533
52.5644 5.77197 17.4804
76.235 5.40129 15.4581
50.0586 5.68436 17.9236
60.6106 6.58426 22.1528
53.2452 7.37296 18.7077
70.6303 5.62557 17.2216
56.0605 6.12587 18.8823
40.9243 5.75867 15.7552
75.8281 4.6874 15.1381
44.7856 5.31315 14.4673
59.8621 5.91672 18.8557
55.2583 5.56688 19.0612
56.721 3.86124 15.2709
77.8174 5.11925 18.5338
41.5918 6.86525 19.9958
66.8507 5.79126 14.1038
79.5128 5.06533 17.4053
59.4194 6.08332 18.8987
78.0707 6.01387 17.9801
43.551 6.59773 22.2125
64.6107 6.12279 18.6573
48.4383 6.68403 19.7875
46.1116 5.26809 18.9338
62.8014 5.48041 16.2599
38.6054 6.33316 19.6002
62.8282 6.2203 21.5151
38.4528 5.1269 15.6694
67.7049 6.44505 19.3692
68.0419 5.57398 18.7712
36.2266 6.22586 17.9021
62.8101 5.4007 17.8738
36.057 5.44629 17.9467
53.2783 5.64015 18.4836
46.9751 6.58207 23.4655
33.8467 7.08401 17.8691
54.0556 6.13616 18.5945
37.9072 7.1686 24.6579
48.2706 6.61392 22.7825
68.0583 6.42472 17.1699
41.3329 6.5089 20.5255
71.7102 5.69396 19.1249
55.0239 6.12555 20.2026
73.701 5.62883 17.5012
49.7641 6.12547 19.7871
72.442 5.59743 14.7915
69.3007 3.70737 14.9277
40.3346 4.30728 15.1815
61.5807 6.04765 20.9787
43.6633 6.88677 19.0349
32.5356 6.09274 22.0504
57.6475 6.1059 16.6662
32.9332 5.47863 17.226
44.1733 6.06456 22.9959
37.7502 7.6698 23.6943
49.1748 5.45115 19.0713
54.8737 6.07295 17.0711
32.6617 5.13966 17.7785
60.7718 4.31371 18.502
48.2762 7.74751 21.3357
46.574 6.47188 20.8086
36.7224 6.5748 20.3456
43.5082 6.33545 19.7109
50.3303 5.08456 16.3285
30.7408 6.16235 22.3784
31.2841 5.4638 18.278
48.1863 5.21746 14.2631
32.8014 5.17092 18.2351
45.6421 5.11246 17.8213
42.32 6.33519 21.1744
34.956 6.11687 19.7541
49.7416 5.92317 19.6388
32.2528 6.05895 21.9852
48.7886 6.39469 19.7641
32.628 6.29974 20.0754
43.3705 6.78265 20.519
42.6168 5.21631 23.3372
32.978 6.88245 21.0909
44.8477 5.82994 21.0538
32.6493 6.90965 17.4417
30.5488 4.92557 19.3866
46.6462 5.73667 19.9426
33.7111 7.04396 24.7802
30.3556 6.15448 16.9057
33.6604 5.54021 18.1165
48.9735 6.10879 21.2605
28.3745 5.50641 19.9508
54.2001 5.48196 18.2891
36.0525 4.91136 16.3724
42.4202 6.61899 21.2142
39.6548 5.58167 17.5824
61.6224 6.32434 19.6779
38.599 5.90634 21.6906
44.6013 5.24811 14.5077
50.9361 5.00599 17.7704
50.0956 4.9585 18.036
46.3279 6.3855 19.0285
36.6217 6.3185 21.9055
29.0729 6.22379 21.2727
53.5359 6.89006 22.0558
25.435 6.73624 22.5032
32.9161 5.42431 20.837
33.7807 5.95522 22.5527
37.1787 5.60208 19.627
36.4611 7.43751 24.1927
34.6273 6.22948 20.9043
51.9523 4.8632 19.7005
31.3002 6.10242 20.3985
36.091 6.95628 23.4284
48.352 6.10918 24.1191
30.8238 7.7551 20.4547
50.8085 5.92124 22.1587
34.2861 5.67926 25.1603
35.62 8.29068 26.4872
66.9439 6.04086 17.8575
26.4804 6.3559 21.7911
57.4815 6.07334 16.6515
44.7437 5.32566 19.1935
52.62 6.45264 21.7978
43.8323 5.77021 18.4507
34.6886 6.85151 23.0303
58.4564 5.49785 24.9835
38.5224 6.12523 20.8399
49.4826 6.37774 21.6565
44.3624 6.90977 19.7998
49.2153 4.92676 22.1197
57.0348 5.84869 20.8209
49.3405 6.8246 20.5487
50.9145 5.16471 22.0016
55.3027 6.24106 21.5195
50.062 4.90499 20.1787
47.8187 7.91582 21.7988
39.643 5.48535 21.4187
47.6735 5.18423 18.2031
30.7693 6.35508 17.1211
53.7716 5.09043 22.9475
36.6494 6.2515 17.8037
31.4583 7.65537 23.8125
45.534 5.56575 18.4741
51.0321 6.2756 25.1312
59.8877 6.65458 21.6569
51.0426 5.90508 23.6973
32.0077 7.09464 22.1948
90.3931 4.56701 17.9421
39.5839 6.2122 21.7118
61.534 5.93525 22.9507
63.5473 5.54342 19.6742
44.1309 7.98897 26.5812
93.9223 6.53859 20.2213
40.4876 5.5023 24.6197
44.4589 7.60314 25.2072
59.3066 6.65802 21.7965
40.6549 6.3542 27.3347
64.5523 8.0641 24.795
45.9862 7.03861 27.0921
64.3498 8.92433 33.1738
54.1636 6.1353 21.7108
51.6331 7.49136 28.5261
64.2539 6.81436 23.851
39.6443 6.55308 19.6837
53.4017 8.02832 34.9981
38.2191 7.62402 21.425
25.7859 5.82478 20.25
65.1795 5.98351 25.706
39.9353 7.39204 26.1715
33.6728 6.74167 21.0273
56.4852 6.3644 26.829
56.2935 9.19837 25.511
48.2683 8.1736 29.6608
39.366 6.58397 19.7315
56.5008 6.02392 23.8494
52.5168 6.14196 24.2569
60.5541 4.74944 20.2793
46.4419 7.35541 29.2823
55.7279 7.2544 26.2082
124.585 7.49937 24.6072
31.6674 6.58891 24.3757
104.51 8.39913 30.2777
84.4968 7.04718 26.2981
46.5046 7.49729 27.9609
58.6615 7.04512 25.0427
53.2389 8.02429 26.664
80.6769 10.319 36.845
41.2262 5.26204 22.4469
40.73 6.66137 28.9404
52.6865 6.44226 23.8115
30.7237 9.28079 30.1249
49.6649 7.70299 28.0989
32.2156 6.84336 24.5261
31.5811 7.00173 23.3713
40.2366 4.8064 25.8483
25.5784 6.72032 19.7585
46.4213 7.00868 19.5237
37.184 5.07231 22.8396
30.7148 5.14874 19.6987
48.2883 7.81461 22.0318
34.0621 6.51212 25.3411
50.8795 8.15145 33.291
42.605 6.17267 18.1338
33.7123 6.28215 19.3848
46.3452 6.18496 31.1946
41.3001 5.68897 21.4279
43.5479 5.94536 22.3502
35.4802 7.25248 23.7388
49.3555 4.88977 21.2276
63.1932 7.42927 23.733
32.2269 7.45369 29.4117
67.3994 7.94617 27.5246
37.5993 6.46739 19.8527
61.5008 6.08156 22.7132
46.4457 6.58178 25.0154
49.3306 5.27048 30.933
41.3457 8.31316 25.1771
37.385 5.16871 17.1139
37.7562 5.53891 27.4168
40.4141 6.71838 19.2511
30.2486 5.66607 18.6122
37.7369 6.02359 28.2334
36.1136 7.24764 25.7553
28.6202 5.46251 21.424
34.6682 6.36636 23.4808
36.372 6.16535 19.2627
26.5959 7.7219 33.1945
26.5024 5.19052 20.8658
34.5234 7.04609 24.6995
36.2881 6.43017 24.6373
29.7753 6.12323 20.308
41.7018 6.24624 21.6593
35.0983 6.40855 21.8518
32.4971 5.79099 20.842
47.9448 5.18884 21.7355
39.9327 5.90505 19.8846
29.1128 6.44765 20.7444
37.2329 4.19357 19.7773
47.8144 5.40993 24.7187
32.1728 6.48755 22.8935
42.1969 5.15942 18.2796
31.152 4.8655 19.2832
34.0924 6.48876 25.0943
37.6849 7.89827 29.3874
37.9402 6.99136 23.1111
36.4235 5.70508 29.0461
27.2408 7.93419 23.8241
39.6248 6.01012 18.7866
34.1272 6.40392 22.2081
43.5608 5.35823 23.2663
33.308 6.08604 20.814
33.4147 5.89996 23.8204
46.3681 6.01447 21.2834
26.9025 6.00345 26.1665
46.7238 5.65288 18.1967
31.5969 5.03558 22.8126
23.9404 6.02152 20.7736
49.8314 5.80372 26.61
36.5666 6.19536 17.4296
42.4836 5.76859 24.2554
38.7569 5.05301 20.5776
50.6126 5.76174 22.9572
43.9511 7.45941 24.5008
52.1104 6.57961 29.6305
32.6443 7.71749 23.2916
36.9665 6.09101 24.968
30.0433 5.71176 19.0325
52.3307 5.53761 21.6912
42.1094 4.51172 19.7746
36.6056 6.0517 20.8475
38.1495 5.87801 20.1195
59.2199 6.28702 26.6089
30.9193 8.39369 31.0619
34.511 6.76071 24.5803
33.9092 6.21989 32.5337
32.4188 6.32593 22.7153
40.3269 8.76506 26.3416
28.6602 6.12586 26.57
44.4054 5.54654 19.0789
39.3312 5.30019 20.9279
30.2626 4.5103 18.6332
54.0184 6.97119 26.0928
36.8087 6.09514 19.8322
65.1873 5.65261 24.4135
41.5843 7.3104 27.5835
32.0015 6.39548 24.0324
87.64 5.96684 21.3271
33.0513 6.02315 25.7895
44.1943 8.27494 32.1563
49.3405 6.36606 25.4564
31.4593 6.16183 21.5195
67.7127 7.75735 23.9
30.6563 7.00713 28.2942
43.8394 5.68347 25.9584
55.0926 7.37869 20.4169
31.0854 5.24685 24.4233
51.4076 5.63006 25.4504
43.8565 7.15366 25.3375
49.5327 4.69266 21.8115
41.6245 6.00696 21.9706
28.8843 4.654 19.0918
70.6836 6.42897 21.13
39.4155 5.55825 22.8304
40.396 5.37989 22.451
50.5413 7.49534 26.99
52.7014 5.94946 26.2517
55.4868 6.32529 19.4039
41.1748 4.72961 19.0918
49.9476 6.46957 24.8325
62.4122 6.17523 26.3369
67.5337 7.16864 30.2404
60.0104 5.38683 26.0318
48.9382 7.70802 28.2106
62.4019 6.98749 23.1283
34.9483 6.52886 26.5768
65.9158 6.8778 24.0828
36.8836 5.44599 23.0914
36.4175 6.72612 26.3115
55.926 5.74178 21.4876
24.2796 6.01506 24.891
70.7127 6.06993 26.095
42.0597 5.96793 27.0498
37.2131 7.06909 19.3721
61.3067 6.33322 33.1397
29.3085 7.00473 19.2574
66.7005 5.92945 23.03
37.3862 7.02735 22.1757
31.6112 6.6131 24.2278
57.5019 5.17092 21.6397
23.1632 6.24849 26.4064
52.6855 5.95644 21.0891
40.1901 5.63384 23.9413
34.5802 5.17784 21.2576
66.8687 5.66739 22.9496
36.5378 7.55513 28.0687
85.0481 6.91473 28.3782
42.5429 6.865 26.1009
51.17 6.49321 23.5178
75.1227 7.38277 26.3411
45.5632 6.98624 29.9077
60.901 6.032 22.3977
40.3596 5.24772 24.9932
39.4143 5.83016 24.4929
62.6198 8.09906 33.3624
40.81 6.40493 25.7762
43.7462 6.27338 27.2187
31.7294 7.95155 29.7051
47.0459 5.72009 23.5503
43.0179 8.58396 25.1127
28.868 6.77364 28.2595
56.5803 5.98478 22.1343
44.7047 6.56564 19.6777
42.7069 5.61715 28.1331
40.5472 6.13597 19.4017
44.0057 5.79561 30.2076
40.6993 7.44052 28.1394
19.5724 7.35288 26.2077
35.0422 6.5687 23.7422
51.8921 4.57693 23.5285
36.7867 7.08988 21.1751
37.4317 5.33644 21.2827
41.9959 6.96224 29.3848
55.3049 5.88948 25.2493
36.4734 6.59349 22.4736
34.8176 6.6735 25.2072
41.2149 6.08886 28.1839
24.152 5.93422 19.042
44.1888 5.6984 23.9208
35.8748 6.07071 31.7538
36.2111 6.38677 20.8779
37.3556 6.29957 23.7499
31.4171 7.56518 29.3388
34.8254 5.60106 25.4037
43.5762 6.50246 26.6531
37.5583 7.10722 24.9354
24.7946 6.59362 26.1809
28.7621 7.86097 33.8772
62.5465 7.23947 27.9993
30.5943 6.31765 25.6192
35.2387 5.91264 19.5332
26.7828 7.28141 30.962
44.6223 5.49448 19.9077
32.9514 5.38885 24.1483
43.7368 8.39989 27.6281
31.903 5.58753 27.166
40.1525 6.69413 26.0824
40.4418 7.41788 24.3817
54.4153 5.39374 29.1159
31.7546 6.67521 21.7907
34.5921 5.25464 28.7327
32.7408 7.99243 25.689
51.0772 6.47369 25.9542
38.1114 7.74303 33.2398
31.0726 6.94791 25.0716
37.0645 5.12277 21.5324
31.7223 7.03202 30.0107
34.4376 6.56092 23.7329
35.8873 6.21343 24.1897
33.0248 6.87261 29.6934
30.4735 7.38895 25.6956
35.6537 6.771 30.3419
41.2309 7.60644 32.0384
35.0788 7.62951 27.2329
38.6509 7.3197 28.3446
33.6946 5.93179 26.4421
33.2105 7.45353 22.3505
43.2817 7.85121 26.3107
37.859 5.57572 25.4975
38.3011 6.97753 26.4022
33.6658 6.18709 32.5188
62.6972 7.71196 30.547
29.8408 6.57544 26.8288
35.0238 6.03504 22.3678
45.0702 5.60572 23.5436
26.8329 6.74634 27.6969
42.1165 7.74961 25.9449
29.2849 6.59396 28.6687
44.2921 7.23339 28.3851
31.4373 7.0151 30.4726
29.9162 7.34023 23.8542
52.9185 5.85863 25.1823
28.473 6.09459 26.019
39.05 7.16105 22.5707
46.1657 5.06279 28.3729
33.3634 5.58763 17.4873
53.5052 5.04625 25.1852
39.204 6.43693 24.8307
42.8417 7.08372 26.2512
35.8353 5.34984 20.7703
36.1118 7.05207 27.8467
45.2467 5.72542 22.3415
37.1894 5.92752 31.3642
41.5147 8.4268 33.2201
56.2284 6.68679 21.3977
31.4828 6.1561 25.9646
81.7259 6.72427 26.5608
41.8097 7.36655 27.9098
44.3807 8.10652 24.8415
49.9126 5.58545 28.1845
52.6734 7.28201 30.3838
58.7908 6.90169 25.9857
38.6936 4.46487 20.0074
39.24 5.66361 21.7799
48.3746 6.74418 25.9071
50.3343 7.38627 30.316
46.3161 7.4623 31.7966
38.8571 6.65015 26.6409
43.3208 7.34458 30.8378
35.722 6.16345 18.6225
53.8796 5.57305 22.3762
35.4119 6.12888 29.3828
40.6433 6.77086 26.8885
49.5856 5.77405 24.3512
28.7494 8.49995 34.0325
46.2348 6.95766 25.7351
44.3428 5.47114 22.7166
32.758 6.10073 26.0683
40.3181 8.42108 28.4894
46.9283 6.13435 28.9879
76.9858 8.29973 23.8056
41.1988 6.21 24.8009
37.4272 6.25604 29.1367
80.3318 7.91465 24.6366
44.0132 6.20517 34.6083
63.5055 7.09374 30.4384
37.8228 8.23323 28.939
52.3216 8.04027 30.4901
114.038 6.87072 24.2543
22.818 0 0