# pn-170911/RbIIR-55-USN3-1280-1959.psd
# Power spectrum* (dif=0,1,2) (really just |FT|^2)
# NOTE: only the first half! (symmetric)
# weeks: 1280-1959
# 2443 clock-days, 24 excluded
# PSD: 1441
834.726 0.0877191 0.021806
17330 0.175393 0.0121446
134123 3.02148 0.012025
8461.92 0.311895 0.0121161
36296.5 2.83335 0.0120174
3113.94 0.301179 0.0122248
2787.09 0.402514 0.0121239
1676.34 0.313305 0.0120296
1891.41 0.525164 0.0126019
1095.58 0.357383 0.0121925
974.602 0.387943 0.0121918
760.15 0.368315 0.0122973
691.133 0.404928 0.0122021
570.586 0.397195 0.0125219
541.418 0.440144 0.0122703
474.182 0.444619 0.0124169
460.837 0.480155 0.0127575
404.076 0.499944 0.0129532
405.639 0.54257 0.0129201
364.188 0.561226 0.0130663
353.851 0.607639 0.0133552
345.253 0.648274 0.0134591
333.38 0.699157 0.013798
353.223 0.79704 0.0138149
332.285 0.845923 0.0147565
321.094 0.88795 0.014573
328.664 0.978827 0.0153068
330.841 1.07078 0.0160569
312.705 1.09611 0.016249
312.031 1.16406 0.0168572
325.426 1.33479 0.0179378
314.388 1.364 0.0187073
310.36 1.42564 0.0191004
304.598 1.51016 0.0192703
326.716 1.72004 0.0219014
326.232 1.82937 0.0231795
313.109 1.84512 0.0243074
324.464 2.03718 0.0255633
333.443 2.21337 0.0276823
340.011 2.40267 0.0299435
329.684 2.45227 0.0314395
322.24 2.49375 0.0322215
325.236 2.61723 0.0341377
345.645 2.98133 0.0390816
340.91 3.06118 0.0395536
329.763 3.08097 0.0421789
335.229 3.29528 0.0459958
321.945 3.31104 0.0472029
337.027 3.65255 0.0529678
324.996 3.6328 0.0540777
322.729 3.7739 0.0571565
342.229 4.13254 0.0636328
327.082 4.14345 0.0653329
339.328 4.4763 0.0728966
317.231 4.34761 0.0719458
319.12 4.51871 0.0753454
327.311 4.79611 0.0830456
316.108 4.81859 0.087558
326.283 5.13218 0.094876
331.396 5.4169 0.102661
320.623 5.38603 0.105213
304.605 5.31624 0.108054
310.243 5.61412 0.116451
299.931 5.59535 0.118188
304.754 5.84268 0.126573
307.099 6.10784 0.136323
301.308 6.19161 0.142279
302.681 6.40329 0.148829
290.129 6.3127 0.1503
301.41 6.73852 0.1652
288.941 6.62605 0.16805
285.066 6.69266 0.173819
279.542 6.77194 0.179383
294.305 7.34887 0.198494
279.557 7.21623 0.200589
271.149 7.17353 0.205175
275.736 7.51181 0.22059
271.961 7.5844 0.227157
274.784 7.83349 0.238241
261.477 7.65758 0.241201
258.489 7.72858 0.247572
246.587 7.60594 0.248744
264.254 8.35299 0.281911
251.118 8.13801 0.280777
244.163 8.06911 0.283902
246.703 8.36528 0.302146
237.168 8.24518 0.302993
252.474 8.98371 0.338326
242.384 8.79879 0.335795
228.805 8.50839 0.334794
228.735 8.69883 0.350598
226.002 8.77917 0.35624
223.488 8.94295 0.375438
222.967 9.04265 0.381053
219.655 9.12235 0.397688
214.261 9.1313 0.408286
277.096 12.1025 0.541295
220.241 9.70502 0.443372
206.953 9.33211 0.437574
201.763 9.2707 0.440175
199.844 9.31617 0.455811
214.257 10.3436 0.513193
205.251 10.0266 0.507276
204.293 10.1979 0.529363
188.252 9.60048 0.506688
198.964 10.3176 0.551336
182.321 9.60433 0.52614
176.857 9.47038 0.523989
187.011 10.2754 0.58543
196.448 11.0326 0.636714
183.048 10.3331 0.603658
183.007 10.5656 0.629617
182.872 10.755 0.651782
182.779 10.9815 0.67477
183.294 11.1853 0.706709
173.303 10.7347 0.685081
170.961 10.7742 0.70395
169.841 10.9337 0.720809
170.294 11.12 0.747373
171.895 11.4443 0.778027
166.812 11.2369 0.779093
160.659 11.0192 0.771014
161.705 11.344 0.806636
166.058 11.8592 0.867463
164.507 11.9058 0.875701
153.242 11.2197 0.842269
154.055 11.4909 0.881977
155.422 11.7131 0.903301
152.756 11.7176 0.923195
150.328 11.7883 0.938098
153.047 12.1357 0.977798
150.979 12.1298 1.00273
156.695 12.792 1.06591
144.507 11.8829 1.00159
146.653 12.3402 1.05692
149.495 12.7518 1.10976
139.459 12.1254 1.08155
141.461 12.4139 1.11954
137.013 12.2651 1.12085
139.951 12.6862 1.16928
133.948 12.39 1.16918
133.944 12.5131 1.18526
129.655 12.2168 1.17708
130.962 12.5871 1.23715
132.544 12.8624 1.27352
127.312 12.4879 1.25118
125.715 12.539 1.27313
130.217 13.2307 1.37347
133.074 13.6531 1.43156
128.931 13.3137 1.40823
125.645 13.2074 1.41715
124.218 13.3156 1.45338
123.079 13.3159 1.46247
122.243 13.4467 1.49965
120.956 13.4662 1.51565
124.491 13.9479 1.59165
121.383 13.8028 1.59546
118.196 13.6356 1.59207
116.273 13.5688 1.62222
116.284 13.6922 1.63152
114.022 13.642 1.66305
119.888 14.5767 1.80499
110.779 13.5658 1.68686
118.095 14.7339 1.86729
115.777 14.5414 1.8519
112.101 14.2841 1.85096
112.943 14.648 1.92315
112.444 14.499 1.90024
109.588 14.5891 1.95697
106.773 14.2005 1.90751
103.74 13.9751 1.91434
112.743 15.2969 2.1099
107.868 15.0093 2.1117
107.175 14.9537 2.11691
104.565 14.9056 2.16031
104.827 15.0104 2.17875
102.424 14.8215 2.17808
102.868 15.0283 2.22863
104.529 15.3263 2.29108
100.83 15.1914 2.31512
104.275 15.5049 2.34801
102.402 15.62 2.41545
98.4926 15.146 2.36496
103.429 16.303 2.59148
103.263 16.1067 2.57236
100.03 16.0445 2.59652
95.4389 15.3556 2.50508
97.7534 15.9067 2.61733
95.0979 15.675 2.6152
94.3297 15.787 2.68223
93.3525 15.6076 2.64289
94.2737 16.1154 2.80521
128.112 22.0251 3.78993
94.8115 16.44 2.88866
89.8641 15.7263 2.80061
91.6503 16.2252 2.9075
92.1026 16.5511 2.99975
93.2218 16.7311 3.01276
86.8144 15.962 2.96553
88.6917 16.5082 3.08751
91.7208 17.0902 3.22609
90.5724 16.9639 3.21305
89.2529 17.0127 3.25894
87.0727 16.7397 3.25944
86.2489 16.7472 3.29114
89.8433 17.4951 3.4433
89.663 17.6321 3.50129
84.2687 16.8901 3.42086
84.2507 16.8633 3.41324
86.8877 17.7598 3.64836
85.1865 17.4303 3.60479
86.9631 17.9245 3.73707
82.5934 17.2791 3.64045
81.5798 17.2234 3.67736
82.6194 17.4753 3.74711
81.3106 17.4872 3.78635
80.1777 17.5526 3.8662
80.5629 17.5928 3.89431
80.9175 17.8172 3.96196
81.4939 18.0854 4.05336
80.1121 18.0144 4.08399
74.833 17.0178 3.90917
77.0725 17.611 4.06485
76.5964 17.7242 4.1358
79.8549 18.5927 4.33747
75.9084 17.8552 4.25364
78.2716 18.7563 4.54498
79.6083 18.9222 4.55126
80.9108 19.3371 4.668
77.7154 18.8823 4.65369
74.8348 18.2811 4.53271
72.5969 17.8699 4.44315
74.7754 18.7874 4.76358
78.937 19.886 5.05052
74.9712 18.9746 4.84431
74.0327 18.8884 4.86589
74.4471 19.2461 5.0198
73.5633 19.0844 4.99963
70.9577 18.6454 4.97497
73.3391 19.3686 5.18849
71.8549 18.9445 5.07962
72.1423 19.4173 5.25861
67.8372 18.3594 5.02796
69.9429 18.9837 5.21342
68.6141 18.9892 5.29796
71.5211 19.8927 5.55503
67.2018 18.6682 5.2661
72.1547 20.2046 5.71028
67.126 19.1135 5.51324
68.9595 19.7764 5.68404
67.2437 19.2445 5.56123
68.1035 19.9536 5.85081
66.6259 19.5368 5.77678
67.6042 19.9996 5.93211
65.1813 19.5255 5.90573
68.5164 20.4929 6.19494
67.2407 20.1889 6.12713
68.0126 20.8466 6.43226
65.3948 20.0386 6.17378
66.8102 20.7764 6.50823
65.9668 20.5055 6.44108
63.3415 19.8617 6.28772
61.7746 19.7508 6.35817
63.22 19.966 6.37711
65.7174 21.0804 6.8152
65.3243 21.014 6.83737
62.8349 20.4092 6.67827
62.5334 20.5881 6.82808
65.5295 21.7716 7.30235
62.8225 20.7849 6.94992
61.8207 20.6415 6.9277
61.3046 20.8193 7.12836
60.5239 20.4688 6.9685
61.9548 21.1621 7.25991
58.7976 20.3211 7.07863
61.4642 21.4851 7.53474
61.1428 21.5917 7.67986
60.4634 21.0743 7.44308
60.4652 21.4181 7.62258
58.1302 20.6427 7.40709
58.6564 21.0176 7.59023
59.9548 21.8634 8.01146
57.7915 21.1743 7.79201
57.7274 21.2333 7.84541
58.0774 21.573 8.07804
57.27 21.2777 8.00427
56.6802 21.1766 8.01265
55.9763 21.2511 8.25869
83.6309 31.5173 11.6775
58.0006 22.3239 8.65043
55.9659 21.5358 8.37394
54.1277 20.9682 8.18977
56.2391 22.0257 8.68743
55.5564 21.9198 8.70533
54.4275 21.3855 8.48208
54.1628 21.498 8.6104
53.1227 21.4217 8.72511
55.3302 22.0572 8.89337
56.3596 22.942 9.33742
52.6174 21.5785 8.90386
53.244 21.8648 9.03262
51.5639 21.4968 9.04543
53.7336 22.4525 9.44765
53.8089 22.418 9.43911
50.2402 21.0842 8.92819
50.8344 21.5504 9.21317
51.6715 21.9185 9.40203
52.5047 22.5926 9.73188
51.5625 22.2832 9.72678
52.4674 22.7267 9.93824
52.1769 22.6909 9.9165
50.622 22.3101 9.91029
53.1744 23.5074 10.3885
48.5919 21.7317 9.82723
51.3923 23.127 10.4314
48.7225 21.9728 10.0062
49.2925 22.6641 10.4984
49.5207 22.2555 10.2144
47.9708 22.037 10.2443
49.9028 22.9647 10.5938
47.6171 22.2924 10.4768
50.166 23.5112 11.0158
46.5084 22.1742 10.6393
46.579 22.2159 10.6524
47.8837 22.8921 11.0673
48.4121 23.1307 11.161
46.8374 22.7387 11.098
47.3993 22.7783 11.0599
48.5662 23.8328 11.7179
46.5075 22.6705 11.1838
46.6936 23.1695 11.5485
47.5506 23.6638 11.8014
46.0838 23.0009 11.5909
44.8939 22.2777 11.1518
44.9897 22.9598 11.7498
43.9327 22.3979 11.5194
45.4867 23.1963 11.9079
45.885 23.6646 12.2583
43.5984 22.3988 11.6391
44.5435 23.0697 11.9996
43.8744 22.7592 11.8642
43.7015 23.2826 12.4811
43.5897 22.9382 12.1513
43.439 23.3857 12.6445
44.0517 23.4952 12.6235
42.381 22.9142 12.5346
42.9546 22.8438 12.2711
43.7911 23.8975 13.098
42.3124 23.0903 12.7191
40.6268 22.1738 12.2989
42.2212 23.4949 13.1536
42.3925 23.3074 12.9167
41.8373 23.2626 13.0552
41.2072 23.1786 13.0986
40.7969 23.1105 13.1113
41.9162 23.9882 13.731
40.8233 23.2427 13.3515
41.2663 23.6288 13.603
41.162 23.9474 13.9499
39.5022 22.8945 13.4304
40.8021 23.6581 13.8044
39.1753 22.576 13.2024
39.4209 23.1915 13.6681
39.607 23.6754 14.1384
38.8733 23.3475 14.0872
39.9808 23.6029 14.0421
38.6989 23.7014 14.5629
38.5722 23.1045 13.979
38.923 23.6549 14.394
38.6859 23.7385 14.5743
37.6959 23.0485 14.2176
39.5311 24.444 15.0832
36.2941 22.5763 14.2029
38.4029 24.2162 15.3222
38.0344 23.6614 14.8879
38.6426 24.3011 15.3851
36.2418 22.8137 14.4616
36.5411 23.2513 14.9504
37.4291 23.9837 15.4
36.0311 23.1608 15.0333
37.3685 24.2928 15.8469
37.6387 24.505 16.0222
36.1063 23.4939 15.6012
36.4713 24.054 16.4189
53.6581 34.3494 21.4849
35.9817 23.8632 15.989
35.6225 23.7456 15.9114
34.3797 23.1939 15.7974
36.4122 24.2766 16.1837
34.2616 23.0948 15.6421
34.6256 23.8626 16.4333
34.1994 23.3177 16.0841
33.3409 22.7004 15.6005
34.6689 24.007 16.6164
34.4065 23.8405 16.6466
34.623 24.0242 16.7391
33.4606 23.3255 16.341
33.5719 23.8477 17.0312
33.5839 23.5096 16.6301
33.9291 23.8803 16.9909
33.8564 23.7814 16.8515
34.4042 24.7107 17.7197
34.5024 24.7402 17.8473
32.5036 23.4942 17.1116
32.6118 23.593 17.2661
32.8832 23.7893 17.4349
32.9389 23.882 17.2963
31.8025 23.509 17.4891
32.9283 24.3427 18.0452
32.6569 24.0195 17.7313
32.0353 23.9218 17.8445
31.4093 23.6199 17.8974
32.3008 24.4066 18.4318
31.0183 23.6127 18.0733
30.9341 23.4292 17.9375
32.5984 24.694 18.7636
31.2918 23.7657 18.108
30.421 23.7648 18.6016
29.7873 22.9486 17.9797
31.3948 24.0858 18.5057
30.4664 24.052 19.0276
31.3177 24.7366 19.6425
30.6563 24.1548 19.2475
31.3991 24.6362 19.5892
29.3813 23.1272 18.5502
31.1438 24.6918 19.569
30.0776 24.0452 19.3295
28.9549 23.1138 18.6654
29.6673 23.9266 19.4081
29.5915 23.7533 19.196
29.371 24.0547 19.7496
29.4575 24.0674 19.8355
29.1308 23.9151 19.8749
28.7621 23.4001 19.3535
28.801 23.5493 19.4062
29.0393 24.137 20.127
28.2689 23.4579 19.6946
29.7187 24.8614 20.6036
28.3798 24.1838 20.65
29.6401 24.9913 21.0411
28.7744 24.5336 20.8613
28.4384 24.6099 21.3563
28.1604 23.9271 20.485
26.417 22.6316 19.6561
27.4964 23.9568 20.9534
27.7232 24.011 20.9481
27.1014 23.7795 21.0933
28.1232 24.1223 20.8467
27.1887 23.8671 21.089
27.9789 24.8186 22.002
26.6918 23.2472 20.4827
26.324 23.4982 21.0003
26.3651 23.2554 20.7762
27.0533 24.2316 21.6227
26.0043 23.4894 21.3151
26.0207 23.4497 21.2348
25.8876 23.8752 22.2171
26.7631 24.286 22.1554
26.4446 24.2842 22.4566
26.9658 24.4448 22.2191
25.6103 23.7868 22.2349
25.569 23.6082 22.1301
26.5961 24.7594 23.1918
25.0411 23.12 21.7649
25.092 23.4138 22.0842
25.4211 23.6186 22.2507
25.4608 23.8725 22.5142
25.3465 23.968 22.7742
25.3474 24.2627 23.234
24.2641 23.036 22.3776
25.2974 24.1568 23.2507
25.6155 24.5777 23.7554
25.2537 24.1694 23.2983
24.1444 23.2664 22.5551
23.9742 23.3734 22.8894
23.5533 23.0075 22.7088
23.6377 23.1188 22.9026
23.9092 23.4027 23.1246
24.2513 24.0582 23.9766
24.3154 24.8547 26.5226
36.3705 34.9755 31.9337
23.3338 23.7293 24.2884
23.607 23.6784 23.8345
23.0923 23.545 24.1197
23.8957 24.3576 24.8969
23.5683 24.153 25.1242
24.3821 24.4104 24.7861
23.9652 24.418 24.8827
22.9773 23.3934 23.8822
22.178 23.1501 24.3765
23.0334 23.7592 24.6466
22.7965 23.5471 24.3294
22.2009 23.4976 25.1668
22.7633 23.2517 24.0214
21.9437 22.9545 24.3212
23.0093 24.186 25.4788
22.2476 23.2241 24.4595
22.152 23.7353 25.3627
22.158 23.5388 25.197
22.4494 24.0485 25.8276
21.4291 22.6359 24.1778
21.3471 23.2841 25.4963
21.8986 23.7218 25.8757
21.6584 23.2268 25.3294
21.6822 23.6576 26.0261
22.3953 24.2628 26.4633
21.5435 23.3185 25.502
21.7822 23.8989 26.1471
21.1849 23.1481 25.4047
20.5356 23.0339 25.7719
20.5506 22.8557 25.6841
20.51 22.8304 25.665
20.5171 22.9112 25.9026
20.676 22.7277 25.2514
21.532 24.6751 27.9491
20.8482 23.4161 26.5237
20.4133 23.0227 26.3193
20.5495 22.9587 25.7655
19.6085 22.5941 26.1454
20.3819 23.5152 27.2039
20.3543 23.1929 26.6708
19.9047 22.9579 26.7901
20.2548 23.3857 27.272
20.3874 23.5252 27.2823
20.2661 23.6509 27.7722
20.0626 23.1891 27.0059
19.3294 22.8791 27.2783
20.3561 23.9725 28.1681
19.2266 22.6484 27.1543
19.8488 23.3783 27.7313
19.4283 23.0553 27.5105
19.1955 22.7207 27.0708
19.4029 23.4119 28.2177
18.7376 22.5706 27.6221
19.3244 23.1071 27.7916
19.6876 23.9721 29.1465
19.2464 23.1755 28.1029
18.3941 22.5476 28.1207
19.278 23.0805 27.9637
19.093 23.3681 28.6733
18.8017 22.914 27.8885
18.5487 23.1217 28.8401
18.2592 22.5326 28.0172
18.1468 22.6667 28.6049
18.7988 23.1367 28.6785
18.2985 22.9307 28.6718
17.6278 22.0609 27.913
17.7402 22.3514 28.4962
18.038 22.6001 28.4935
17.9948 22.9098 29.3161
18.0986 23.0081 29.5016
18.1982 22.9958 29.3582
17.505 21.8457 27.7446
18.2807 23.6626 30.0949
17.4019 22.4753 29.1861
17.0397 22.1805 29.1744
17.1308 21.7206 28.1476
17.2501 22.2421 28.7244
17.0037 22.1887 29.202
17.5019 22.9079 29.9338
17.3226 22.8579 30.0911
16.7366 21.9543 29.4826
17.7657 23.2234 30.477
17.1845 22.4978 29.5739
17.0627 22.7995 30.2908
16.8434 22.3449 29.5736
15.9347 21.6428 29.898
16.9599 22.485 30.3417
16.8758 22.3346 29.8898
16.5578 22.5115 30.9813
17.2807 22.9829 30.8742
16.5701 22.1719 29.9069
16.7039 22.9224 31.2015
16.7087 23.0662 31.8861
16.3651 22.3755 31.1765
16.328 22.8969 35.0083
25.9733 34.604 42.5202
16.1761 22.5207 31.7981
16.5931 22.8969 31.7638
16.039 22.1771 30.9413
16.3342 23.0159 32.4481
16.3054 22.648 31.507
15.8223 21.9839 30.5868
15.3762 22.099 31.7471
15.6656 21.9772 31.3099
15.8261 22.695 33.0898
15.95 21.7503 30.4129
15.2191 21.5354 30.8189
15.7776 22.4273 31.8756
15.4348 22.1445 31.8889
15.4476 22.2879 32.2393
15.3415 22.0812 32.3519
15.5062 21.821 31.3091
15.4355 22.1984 32.1737
15.9643 23.2252 33.7749
15.5516 22.3376 32.1387
15.1654 22.0967 32.0278
15.2758 22.6994 33.197
14.5802 21.4196 31.788
14.9335 22.1801 32.9539
14.4813 21.1545 31.3978
14.73 21.8291 32.5246
14.6357 21.8637 32.8756
14.9338 22.0213 32.3862
14.2609 21.5112 32.5721
14.7588 22.0996 33.059
14.1741 21.2762 32.4099
14.3685 21.3902 31.9999
14.378 21.8488 33.0559
14.1396 21.382 32.6917
14.0554 21.3236 32.7196
14.1205 21.2602 32.5275
14.5326 22.1213 33.3978
13.7692 21.2217 32.839
14.1748 21.7392 33.4793
13.8548 21.2433 32.5862
13.4003 21.0375 33.2037
13.6685 21.0333 33.1434
14.0818 21.726 33.7595
13.6989 21.1341 33.0876
14.0819 21.9156 33.9901
13.5204 21.2226 33.6093
13.734 21.3183 33.2058
13.4121 21.0186 33.0212
13.4143 21.5246 34.4696
13.8249 21.7918 34.6182
13.819 21.8587 34.4194
13.4696 21.7131 35.0443
13.3983 21.3105 34.2671
13.2666 21.0395 33.9112
13.4649 21.6264 34.6172
13.1759 21.3969 35.2022
13.3036 21.1115 34.214
13.2422 20.9208 33.4808
13.1123 21.3873 34.8221
12.9538 20.8578 33.6643
12.3643 20.3029 33.8551
12.9212 20.9962 34.4353
12.7137 20.9501 35.0992
13.2482 21.5114 35.2176
12.9195 21.2636 35.3973
12.8655 21.0013 35.0249
13.265 21.5335 34.8291
12.294 20.5974 35.0677
13.1355 21.4025 35.0018
12.7787 21.5068 35.8658
12.7051 21.2999 35.7667
12.6823 21.1858 35.6466
12.8743 21.5436 35.9271
12.4183 21.2673 36.2474
12.5781 21.2476 36.1651
12.556 21.2785 36.3139
12.2477 20.5713 35.2194
12.2576 20.7149 35.3998
12.3565 21.2146 36.6063
12.1661 20.7241 36.1526
12.3881 20.6184 35.0827
12.1685 20.622 35.1975
12.0429 20.8581 35.9757
12.2352 21.1088 36.0048
11.6454 20.0654 34.8627
11.7077 20.5631 36.328
12.2468 21.1858 36.3014
11.5992 20.4847 36.6234
12.1437 21.0633 36.5629
11.5588 20.0716 35.1496
11.8521 21.1768 37.5579
11.7997 20.6828 36.7011
11.7864 20.6453 36.6915
11.7506 20.6926 36.5624
11.4279 20.6768 37.4328
11.5349 21.8048 45.5054
18.2516 30.4785 46.4475
11.2409 20.2096 36.6404
11.0325 19.8339 35.8314
11.1911 20.1157 36.2512
10.9188 19.6271 35.6593
10.8684 19.78 36.4664
11.2497 20.5396 37.8381
11.2926 19.9238 35.9018
11.0074 20.2625 37.3204
11.1861 19.9421 36.115
11.0827 20.3973 37.4212
11.1268 20.3487 37.337
11.0209 20.259 38.0561
11.3124 20.2725 36.9172
11.2712 20.6782 37.6732
10.8815 20.1419 37.2827
10.6954 19.8819 37.0506
10.876 20.1601 37.4425
10.8803 20.1689 37.2322
10.293 19.1913 36.258
10.5235 19.7701 37.1247
10.6687 20.2599 38.2579
10.3311 19.2433 36.5593
10.2823 19.198 36.4271
10.2385 19.1655 36.1267
10.2334 19.4081 36.8945
10.1878 19.413 37.0478
9.88465 18.7556 36.4665
10.3773 19.788 38.0872
10.4262 19.3827 36.6179
10.2917 19.9717 38.2412
10.0127 18.9173 36.4255
9.91581 19.333 38.078
10.5041 20.0836 38.6775
10.1 19.1332 36.739
9.88843 19.21 37.5092
10.0308 19.6008 38.6682
10.0075 18.8652 36.1576
9.73272 19.0025 37.1356
9.87209 19.2402 37.4171
9.84234 19.4494 37.8578
9.40469 18.3177 36.1452
9.27806 18.2461 36.5762
9.71371 18.9244 36.8631
9.48525 19.0192 38.1846
9.71317 19.1983 38.2898
9.56106 18.7547 37.5341
9.393 18.6677 38.4803
10.1817 19.8793 38.646
9.61948 19.0548 37.5301
9.26458 18.6192 37.9144
9.62271 19.1195 37.549
9.21708 18.8265 38.2815
9.34729 18.9679 38.4001
9.27098 18.9065 39.5072
9.7928 19.1947 37.7182
9.12229 18.6005 38.0461
9.27544 18.9547 38.6725
9.14618 18.723 38.9514
9.25279 18.4563 37.4669
9.02496 18.2183 37.5713
9.42912 19.3995 39.4635
9.15772 18.4332 37.2019
8.53505 17.7678 37.6589
9.24593 18.8419 38.068
8.71674 18.3031 38.7676
9.14891 18.8625 39.2867
9.16109 18.9407 39.2546
8.89274 18.4628 38.7542
8.69396 17.7953 37.5616
8.83471 18.1871 37.9673
8.90711 18.662 38.8771
8.49391 17.6116 37.363
8.72911 18.3006 38.4161
8.6847 18.3007 38.8911
8.90612 18.877 40.1769
8.74547 17.9982 38.2496
8.85013 18.4921 38.3713
8.56218 18.1671 38.2265
8.33614 18.0383 39.3138
8.72625 18.72 40.5505
8.82718 18.3436 38.8407
8.65648 18.7482 40.4069
8.49917 17.9392 38.6193
8.53516 18.3157 39.2366
8.49005 18.2229 39.0447
8.21531 17.7769 39.4724
8.63601 18.3204 38.9634
8.47767 18.6592 40.1434
8.13131 17.6215 38.9841
8.35607 18.1056 39.6654
8.43457 18.3715 39.6845
8.1163 17.7749 39.3509
7.93402 17.2272 38.2
7.97691 17.7469 39.8357
8.06856 19.052 51.8054
13.4296 26.3201 46.4232
7.92528 18.161 40.7185
8.09547 17.9636 40.234
8.30088 18.211 39.6934
7.92008 17.476 38.8789
7.80696 17.502 39.9006
8.16185 17.7976 38.7186
7.51854 16.9678 39.2321
8.13762 18.309 40.9932
7.80758 16.7711 37.4915
7.84183 17.7752 39.844
7.86417 17.5528 39.1354
7.63168 17.3491 39.7687
7.70423 16.9834 38.3426
7.77448 17.5371 39.505
7.69335 17.4688 39.6802
7.85334 17.9465 40.5979
7.57261 16.9258 38.6785
7.5448 17.1401 39.1005
7.6867 17.548 39.6753
7.46938 17.0579 38.9485
7.36541 17.0971 39.332
7.31538 17.0256 40.1572
7.61398 17.253 39.1002
7.27885 16.9531 39.9031
7.35749 16.8756 39.7342
7.56771 17.1058 39.0446
7.48749 17.748 41.6159
7.40712 16.7145 39.0305
7.33017 17.1174 40.1178
7.36958 17.1706 40.5396
7.46188 17.0693 40.0004
7.42241 16.976 38.741
7.05175 16.773 40.3591
7.54453 17.4419 39.997
7.18451 17.0662 40.2325
7.3219 17.6299 41.4333
7.18961 16.9209 40.1963
7.00592 16.5404 39.7579
7.10795 16.718 40.2979
7.22764 16.9523 40.018
6.99762 16.4493 39.3725
7.07551 16.665 39.3962
6.83142 16.4672 40.36
7.25343 17.2117 40.6653
7.10302 16.9055 40.3386
6.97594 16.5897 39.6132
6.9068 16.7744 40.0657
6.65863 15.967 39.6103
7.03631 16.921 40.8748
6.80188 15.96 39.0716
6.89687 16.6297 39.6433
6.63435 16.0028 39.4696
6.74025 16.1589 39.3912
6.74691 16.4477 40.3465
6.80346 16.3159 39.6614
6.73093 16.4362 40.2321
6.74372 16.0947 39.099
6.65214 16.4366 40.0206
6.58094 16.2245 40.7596
6.72167 16.2159 39.8238
6.63253 16.4154 40.9458
6.68802 16.3111 40.2545
6.59991 16.17 40.6271
6.85478 17.0337 42.1673
6.83127 16.6551 41.0819
6.73804 16.8444 41.4531
6.44899 15.7071 39.5945
6.57559 16.3269 40.4709
6.5883 16.6381 41.8373
6.51936 15.8982 39.8372
6.3962 16.0445 40.6649
6.46458 16.0726 40.6119
6.52059 16.106 39.7509
6.33359 16.1329 40.5219
6.26536 15.7641 40.4539
6.44084 16.2823 41.2057
6.34001 15.6293 39.5799
6.29663 16.0171 40.8623
6.4347 16.2742 41.3994
6.39375 16.0114 40.5003
6.25555 15.877 40.0414
6.05429 15.2809 39.6251
6.38596 16.3512 40.5451
5.92732 15.2271 39.6468
5.99243 15.2016 39.4386
6.1732 16.1822 42.022
6.2247 15.7727 40.8407
6.15509 15.7049 41.0214
6.2549 15.7407 40.1219
6.13212 15.9826 40.6935
5.98969 15.7225 40.9606
5.98334 15.714 42.0947
6.17753 15.7386 40.8285
5.97472 15.9244 42.8093
6.28315 17.8479 59.4183
10.5448 24.4093 50.2648
6.32938 16.5655 41.8412
5.91007 15.9986 43.1474
6.22911 16.3606 43.4312
6.17988 15.9359 41.9665
6.10696 16.021 41.8568
5.9119 15.3614 40.5182
5.87725 15.568 41.5697
5.89563 15.3102 40.4812
5.81638 15.3537 40.9814
5.84424 15.3669 41.193
5.92464 15.6847 41.4406
5.85496 15.4142 40.7196
5.81246 15.5248 41.2599
5.68743 14.8155 39.1104
5.5219 15.0226 41.0298
5.81747 15.5204 41.3479
5.63113 15.0418 41.1751
5.72933 14.9576 40.3407
5.6853 15.0409 40.3164
5.62935 15.2873 40.7841
5.47145 14.6101 40.2417
5.51211 14.6354 40.5599
5.78041 15.3578 41.2028
5.70179 15.4357 41.2206
5.48291 14.6975 40.0081
5.50514 15.0958 41.0632
5.42832 14.579 40.215
5.57324 15.181 41.3301
5.57957 15.0886 41.198
5.43139 14.76 41.1226
5.6057 15.4604 42.9678
5.6991 15.0567 40.9767
5.43 14.6049 40.076
5.43532 14.8611 40.613
5.25846 14.1491 39.4304
5.31882 14.5406 40.3742
5.45873 15.0094 40.6009
5.24605 14.5113 41.2301
5.56063 15.0905 41.0897
5.42087 15.2245 41.8694
5.42323 15.2792 42.8196
5.444 14.9368 41.6933
5.43888 15.0476 41.7847
5.2638 14.6451 41.5398
5.35325 14.682 40.5234
5.21004 14.6355 40.725
5.10629 14.2841 40.7805
5.14893 14.2109 40.4858
5.20329 14.4718 41.179
5.39086 14.9926 41.2357
5.08889 14.3659 41.051
5.26844 14.5474 40.6537
5.15968 14.4987 40.0555
4.95161 14.1008 39.889
4.88356 13.6455 38.9315
4.96897 14.2064 40.5428
5.03185 14.2509 40.2915
4.97601 14.2724 41.2625
5.04603 14.2563 40.8969
5.07114 14.4921 41.2551
4.96574 14.1854 42.0854
5.25559 14.7457 41.5016
5.05902 14.1041 39.4075
4.83732 14.2708 41.6991
4.99384 13.9844 40.4565
4.90621 13.8969 40.537
4.94455 13.964 39.9426
4.9409 14.4122 41.5992
4.95295 13.9753 39.8696
4.83409 14.0575 40.622
4.86546 14.1451 41.3061
4.84263 13.7984 40.0572
4.84622 14.0062 40.0513
4.71819 13.7244 40.4075
4.87036 14.1445 40.2242
4.68172 13.7655 40.3542
4.81159 14.1844 41.3075
4.80136 14.0701 40.9994
4.67412 13.8498 42.1814
4.9087 13.6836 39.6511
4.67456 13.9317 41.6033
4.84842 14.0495 40.8734
4.69219 13.7201 41.6749
4.96478 14.5033 41.4079
4.63812 13.5925 40.9233
4.778 13.939 39.5359
4.3953 13.1987 40.508
4.62358 13.4566 39.5349
4.48519 13.469 41.6898
4.76411 13.7241 40.973
4.62619 13.3093 39.0237
4.40403 13.1701 39.9581
4.54884 13.3514 39.878
4.59449 14.0471 42.4825
4.6845 16.0061 65.4114
8.56411 22.0175 47.6266
4.56323 14.1313 42.6014
4.67384 13.9196 41.5622
4.56486 13.5783 41.0242
4.5878 13.4951 39.6695
4.51299 13.972 41.5976
4.50658 13.5752 40.7127
4.41722 13.33 40.7362
4.44578 13.4118 40.9621
4.42977 13.0026 39.1474
4.32519 13.1991 39.9022
4.36598 13.2381 40.3875
4.45939 13.7415 41.2669
4.36466 13.2715 40.7135
4.31338 12.8442 39.9311
4.37233 13.1406 40.3962
4.45581 13.6296 41.1304
4.36213 13.2081 40.2957
4.2865 13.1426 41.3851
4.4626 13.4885 41.1328
4.41478 13.7088 42.7317
4.50483 13.4044 40.3162
4.17775 12.6549 40.0511
4.28696 13.0882 40.4022
4.25707 13.1046 41.9585
4.531 13.3325 40.1171
4.33908 13.4596 40.5144
4.19018 12.8429 39.4957
4.20847 13.2107 40.6123
4.2301 13.0709 40.4169
4.15099 12.5653 38.7926
4.01528 12.4391 39.3933
4.15771 13.0357 40.3241
4.13889 12.7896 39.6454
4.02252 12.5692 40.8696
4.3266 13.4295 42.1478
4.37428 13.4705 40.8971
4.12714 12.8252 40.2889
4.14773 12.9704 40.7436
4.16494 12.9521 40.5572
4.08606 12.7946 40.5598
4.11739 12.7781 40.609
4.16664 12.8833 40.0135
4.10511 13.2854 42.0641
4.15838 12.7999 41.2957
4.2546 13.0887 40.2285
4.00562 12.8433 41.7748
4.20866 13.0361 41.4591
4.16212 13.0581 41.5811
4.22858 13.3711 41.4893
4.0159 12.5958 40.3546
3.95691 12.3973 39.5457
3.95375 12.5557 40.5556
3.98228 12.1947 39.0654
4.008 12.9269 40.9084
4.01899 12.765 41.0158
4.00878 12.6582 40.403
3.95658 12.4922 39.94
3.91673 12.6902 41.4641
4.04604 12.6492 40.4603
3.94408 12.6519 41.4702
4.06247 12.7168 40.2153
3.90273 12.4416 39.6244
3.84935 12.2313 39.5809
3.91431 12.7505 41.0567
3.95023 12.7639 41.2264
3.94808 12.6565 40.6769
3.87431 12.5697 41.3747
3.95934 12.7022 41.6084
3.97698 12.5836 40.5764
3.85153 12.4592 41.4246
3.98816 12.6594 40.1354
3.73409 11.921 39.571
3.80441 12.3033 40.3083
3.85471 12.4245 40.0514
3.74355 12.1867 40.6046
3.78609 11.9298 40.0276
3.88623 12.638 41.1886
3.84985 12.1392 39.4955
3.75556 12.1831 39.4784
3.76413 12.1975 38.928
3.59524 12.013 40.3968
3.80793 12.4119 40.4034
3.80271 12.7699 41.7518
3.77185 12.2449 41.4836
3.90965 12.6531 40.2425
3.63056 11.8873 39.5033
3.66134 12.3184 41.9887
3.85245 12.2566 40.4448
3.7383 12.1261 39.5051
3.62997 11.9176 39.5608
3.6187 11.98 39.7369
3.61189 11.948 39.526
3.5625 11.7613 40.2216
3.71435 12.5641 42.0888
3.71304 13.8937 64.2762
6.51457 18.0341 42.5342
3.6062 12.6886 41.5806
3.70596 12.49 40.0292
3.52524 11.7587 40.088
3.63075 12.3328 41.4203
3.62621 11.6367 39.2184
3.60375 12.2369 40.3699
3.55091 11.7959 39.2462
3.45658 11.7393 41.9598
3.75493 11.824 38.8299
3.56969 12.2487 41.355
3.67249 12.1751 40.7988
3.6579 12.2225 40.5943
3.56681 11.8379 39.4927
3.506 12.0127 41.079
3.64764 12.2039 40.1299
3.49518 11.9069 40.5647
3.53455 11.8512 40.3271
3.54036 11.8578 40.3249
3.496 11.6447 39.7762
3.50673 12.0736 41.3504
3.55714 11.8161 41.2291
3.60254 11.8988 40.4526
3.5359 11.7638 39.2547
3.37475 11.3318 40.1383
3.59329 12.2783 40.7065
3.47854 11.952 40.9698
3.50213 11.6937 40.5949
3.539 11.8535 39.9131
3.43634 11.7441 40.5587
3.48571 11.9012 40.5107
3.44319 11.8988 40.9379
3.48955 11.8775 39.9688
3.39074 11.8415 41.9822
3.54256 11.5708 39.3404
3.34592 11.4591 40.0417
3.41528 11.3595 38.9619
3.35082 11.617 40.1352
3.38721 11.3443 38.806
3.29694 11.4979 40.183
3.40547 11.6279 39.3133
3.24501 11.1647 40.4073
3.401 11.3549 39.7164
3.35948 11.2818 39.2292
3.36592 11.6304 39.0884
3.24825 11.2717 39.7667
3.35435 11.5531 39.9675
3.35989 11.7678 39.9962
3.26998 11.2377 40.1359
3.3353 11.2408 38.8062
3.20693 11.0315 38.4684
3.24048 11.4359 39.9698
3.30737 11.4168 39.4642
3.26371 11.7179 40.9635
3.26836 10.907 39.5363
3.32155 11.4167 39.7267
3.32192 11.6512 40.4962
3.31616 11.5631 40.45
3.32913 11.4187 40.137
3.2989 11.4402 39.1818
3.22521 11.4958 39.8942
3.20122 11.2119 39.9246
3.24977 11.2689 39.2535
3.15147 10.9012 38.9971
3.20787 11.4568 41.4187
3.34088 11.2428 39.3293
3.21583 11.3097 39.3396
3.17896 11.259 39.8412
3.1784 10.9102 38.8205
3.12576 11.0297 40.4711
3.31788 11.3587 38.4958
3.07432 10.905 38.8769
3.10951 11.0333 39.3214
3.16396 11.177 38.7876
3.08561 11.1436 40.9338
3.24865 11.1697 39.5846
3.1479 11.2045 40.0235
3.18704 11.1966 39.2547
3.1058 11.265 40.2097
3.12027 10.9391 39.6214
3.10291 10.843 39.9983
3.18555 11.0432 40.7426
3.28948 11.5916 39.7918
3.10117 10.9937 40.1017
3.17029 10.9407 39.4602
3.12441 11.3706 40.8694
3.19033 11.3911 42.0145
3.29683 11.4459 41.0264
3.24193 11.41 40.1134
3.13107 11.2531 39.7539
3.08127 11.1969 40.0734
3.10021 10.8523 39.5094
3.10837 11.2279 39.3108
3.0336 11.2862 41.1124
3.17879 11.904 43.3685
3.30608 14.0385 71.0013
5.70154 16.4317 43.954
3.31078 12.2073 42.8918
3.29475 11.9615 41.7339
3.20501 11.6665 41.3437
3.12953 10.745 38.9091
3.04384 10.9733 38.9894
2.99192 11.0511 40.1374
3.03949 10.7673 39.7803
3.13163 11.5024 40.5528
3.03001 10.6765 39.5288
3.01566 10.8357 39.7582
3.04697 10.9142 39.8729
3.09203 11.2566 39.3683
2.96574 11.0652 40.0708
3.00393 10.6811 38.6098
2.9032 10.3162 39.2322
3.04211 11.1929 39.552
2.95555 10.5103 38.1525
2.87521 10.6405 39.5233
2.98077 10.6229 39.6979
3.0255 10.9789 38.4545
2.86444 10.5697 39.2633
2.9188 10.3172 38.5826
2.95149 10.9981 39.2609
2.9214 10.6736 38.5495
2.88697 10.5852 38.4582
2.86013 10.5468 38.389
2.84904 10.4722 39.3895
2.952 10.5557 38.1412
2.81683 10.4626 39.2479
2.92047 10.7269 39.3438
2.9178 10.792 40.086
2.9609 10.7666 39.2835
2.87775 10.4647 39.7963
2.94695 10.431 37.7565
2.82219 10.2464 37.7796
2.8072 10.6882 39.5328
2.8812 10.3672 38.4441
2.84394 10.3753 38.783
2.8633 10.593 39.0886
2.87221 10.5989 39.2305
2.84505 10.056 37.9448
2.81627 10.3313 38.6347
2.84443 10.3794 37.3707
2.72044 10.2077 37.524
2.74575 10.293 38.1504
2.76671 10.4458 40.0462
2.96004 10.8583 39.407
2.83073 10.2117 37.9024
2.76231 10.2806 39.1641
2.8753 10.6397 38.5107
2.77687 10.32 39.8841
2.88806 10.5029 38.4574
2.78236 10.652 40.2567
2.87553 10.3657 38.5779
2.78553 10.2074 38.3266
2.75399 10.0091 37.2995
2.70159 10.3187 39.0437
2.82118 10.4462 38.199
2.72105 10.3303 38.769
2.74635 10.2923 38.5536
2.71658 9.98596 38.4368
2.75957 10.2849 38.4673
2.74751 10.2687 38.6213
2.74738 10.2112 38.4452
2.75331 10.2109 37.7958
2.68785 10.2883 39.2593
2.77468 9.98342 38.2362
2.73652 10.0838 38.1822
2.73513 10.2446 37.6831
2.65894 9.90049 38.0756
2.70913 10.1991 37.996
2.68402 9.81724 37.5087
2.674 9.93759 37.0156
2.62561 9.89617 38.3039
2.72902 10.3291 38.3553
2.70533 10.3077 39.0747
2.72782 10.1412 38.8414
2.74265 10.0251 37.3752
2.63525 10.229 37.9544
2.6149 9.79954 38.9054
2.7262 10.2729 39.4094
2.77641 10.2286 38.5385
2.67678 10.1016 38.5948
2.67653 9.86526 37.9113
2.67959 10.2437 38.7114
2.7076 10.323 38.7871
2.70276 10.2477 38.2372
2.6272 9.89609 39.7812
2.77333 10.0991 37.8662
2.63915 9.83903 36.8908
2.57929 10.1395 40.1429
2.75379 10.1784 38.2426
2.65481 10.068 37.9438
2.63522 10.2519 38.3609
2.63404 12.9161 72.2175
5.11054 14.9454 39.2325
2.65679 10.6439 38.2735
2.59859 9.95413 38.9756
2.6966 9.96959 37.1259
2.58328 10.1879 38.8979
2.65689 10.0483 39.6803
2.73518 10.2946 38.5469
2.67451 10.2431 39.0466
2.67188 10.3594 40.4447
2.76897 10.0466 37.9365
2.61321 9.76102 36.5021
2.52465 10.1119 38.2077
2.58156 9.96782 38.7612
2.64031 9.92707 39.2195
2.69392 10.221 39.5072
2.70947 10.3506 38.7424
2.63613 10.1791 37.9068
2.56649 9.99146 39.3547
2.67091 9.71229 38.1822
2.60342 9.85542 37.9417
2.59064 9.99035 37.5165
2.53269 9.76994 37.2595
2.52255 9.4911 37.2629
2.51855 9.38955 36.6047
2.51296 10.0608 37.6867
2.52132 9.45779 36.6416
2.47722 9.78559 39.6937
2.68999 10.0688 37.921
2.55598 9.82892 38.3984
2.59119 9.7246 37.4662
2.53375 9.60792 37.5325
2.54694 9.98826 37.6616
2.51055 9.7524 39.2883
2.64635 9.85456 37.3146
2.52234 9.97152 39.0782
2.6087 9.71029 38.1558
2.57885 9.68036 36.9335
2.48639 9.62308 37.2839
2.50721 9.62051 37.6487
2.52905 9.92528 37.8894
2.51577 9.54059 37.7126
2.52985 9.67828 37.5176
2.54281 9.89563 36.957
2.4534 9.63123 38.1593
2.53364 9.70369 38.2124
2.53665 9.53914 37.5904
2.51256 9.51518 36.7589
2.46185 10.0406 39.8517
2.6419 9.74099 36.9823
2.4518 9.62471 38.6469
2.57759 9.78136 38.0043
2.55004 9.84074 37.5279
2.4813 9.40382 37.5541
2.52055 9.74096 37.333
2.4653 9.42692 36.3848
2.40622 9.37532 36.0762
2.40416 9.52674 37.8666
2.48146 9.55194 38.827
2.57112 9.73314 37.5352
2.48423 9.54855 38.1136
2.52692 9.63374 36.8887
2.44893 9.6526 38.0517
2.50075 9.70807 37.8107
2.49021 9.43995 36.4749
2.40189 9.38413 37.781
2.51496 9.92017 38.6297
2.53383 9.93393 38.6086
2.51151 9.69369 37.8195
2.48396 9.53895 37.871
2.48909 9.59452 38.0571
2.51552 9.66887 38.5001
2.53513 9.72355 36.6085
2.39943 9.58535 37.7382
2.47098 9.4865 37.7278
2.4824 9.96041 38.8674
2.53853 9.78763 37.4163
2.42539 9.40297 36.2861
2.38247 9.56768 37.8744
2.46545 9.66408 36.8517
2.39806 9.26812 37.2263
2.43154 9.13949 36.3105
2.39848 9.39377 37.0088
2.41448 9.59132 38.545
2.5065 9.62652 37.7197
2.45401 9.43434 36.9923
2.39676 9.487 38.4538
2.51443 9.89013 38.4638
2.50467 9.49643 38.1607
2.4821 9.51114 36.9115
2.40573 9.42393 36.722
2.40813 9.68566 37.2931
2.41351 9.69562 38.6391
2.4929 9.40777 36.0116
2.33485 9.18799 36.108
2.34146 9.67973 37.9008
2.42427 12.2264 71.0872
4.62806 13.3574 37.9397
2.45775 10.1827 37.6804
2.44385 9.72226 37.1105
2.3879 9.39731 37.0743
2.3929 9.4558 38.5699
2.49724 9.71124 37.9488
2.4464 9.49531 37.1222
2.39332 9.42163 37.1585
2.39287 9.25551 36.0127
2.32392 9.30564 36.7492
2.38016 9.41877 37.3283
2.42624 9.57903 37.9519
2.43639 9.37574 37.3055
2.40075 9.35498 37.5977
2.43199 9.37693 35.9474
2.31918 9.46703 37.5447
2.41538 9.15611 37.8478
2.4494 9.54079 36.6182
2.3496 9.46343 39.4688
2.54155 9.37264 36.6618
2.35195 9.28864 37.6646
2.43346 9.35494 36.5766
2.35988 9.52146 37.0315
2.38202 9.18817 36.0966
2.3205 9.51218 38.8588
2.49107 9.49918 36.9537
2.37951 9.25136 36.3512
2.33091 9.21722 37.2376
2.39824 9.63095 37.3266
2.38071 9.48309 38.0874
2.44458 9.54997 38.2457
2.44455 9.2962 37.6587
2.40339 9.35616 36.5357
2.3318 9.17953 36.2933
2.32562 8.77553 35.8132
2.29858 9.36864 38.1955
2.44262 9.51207 37.005
2.37899 9.64921 39.1051
2.5154 9.63079 36.5891
2.34115 9.33546 37.3315
2.37226 9.27778 36.949
2.35626 8.96616 36.0819
2.30829 9.35887 37.937
2.43441 9.36644 36.9005
2.36106 9.12227 35.9836
2.30314 9.10293 37.6585
2.41723 9.53775 36.2855
2.30953 9.42109 36.9046
2.36157 9.44099 37.5281
2.39661 9.24653 36.5906
2.32788 9.26468 36.26
2.33003 9.11162 37.0208
2.34827 8.96332 35.8753
2.29829 9.00409 36.4698
2.32945 9.3024 35.9659
2.28604 9.13378 37.3755
2.38889 9.4691 38.4235
2.43336 9.42268 37.2379
2.36812 9.1449 37.447
2.38066 9.2107 37.8251
2.41051 9.48748 38.0343
2.4239 9.36512 36.3944
2.31616 9.27222 35.4632
2.27335 9.16859 36.2561
2.31552 8.96242 36.1332
2.29362 9.21006 37.8376
2.41514 9.24908 36.714
2.33787 9.19184 37.9063
2.40376 9.5377 37.7203
2.39858 9.34953 36.6949
2.34982 9.7603 37.4392
2.37989 9.26896 37.8039
2.40949 9.39086 38.1562
2.42621 9.31922 37.789
2.39984 9.45871 37.4226
2.37249 9.12261 38.085
2.40917 9.76563 35.9243
2.28662 8.97079 37.707
2.40971 9.65684 36.5943
2.3161 9.34897 37.9249
2.42222 9.60911 37.472
2.38404 9.17883 36.9382
2.32836 9.19982 38.4019
2.43372 9.60233 37.2932
2.3676 9.469 37.9541
2.41239 9.57771 38.9102
2.46967 9.63893 37.8623
2.39745 9.30629 37.3063
2.36985 9.59901 36.9515
2.35045 9.26209 39.0386
2.47152 9.56333 38.8108
2.47813 9.69831 38.9096
2.48096 10.1553 38.757
2.46184 9.92292 40.0279
2.52433 10.5835 40.6373
2.58126 13.8791 78.7882
4.99779 0 0