# pn-170911/RbIIR-46-USNO-1280-1959.psd
# Power spectrum* (dif=0,1,2) (really just |FT|^2)
# NOTE: only the first half! (symmetric)
# weeks: 1280-1959
# 11 clock-days, 0 excluded
# PSD: 1441
1299.56 0.236295 0.0215201
63593.3 0.623365 0.0227474
523472 11.2905 0.0383596
18599.7 0.902454 0.0447261
39195.2 2.10948 0.0301625
7866.69 0.641314 0.051829
7265.11 1.29817 0.0192928
3358.43 0.363489 0.0355342
4357.01 0.883141 0.0430911
2095.07 0.310729 0.0323854
1790.58 0.561087 0.0480821
1356.64 0.430391 0.0248905
1553.73 0.607617 0.0377503
1245.66 0.681579 0.0421629
1214.58 1.09759 0.0317487
929.342 0.556083 0.0461858
643.903 0.621745 0.0386527
1131.04 1.07178 0.0358447
725.415 1.12188 0.0450953
838.609 1.02828 0.0232555
520.668 0.663047 0.0316547
244.146 0.389568 0.0456703
574.994 0.737561 0.0408988
381.7 0.888558 0.052122
389.486 0.832956 0.0202675
218.119 0.497263 0.0342614
537.425 1.26297 0.0448502
241.948 0.63671 0.0311345
232.862 0.691551 0.0519064
453.41 1.47331 0.0255549
382.905 1.25 0.059739
273.25 1.25648 0.0461088
352.101 1.63516 0.0360205
239.495 1.12662 0.0581714
183.468 0.807147 0.0371382
207.174 0.794767 0.0543268
226.597 1.37066 0.0477857
169.035 0.800656 0.0263484
327.412 1.94534 0.0550809
384.967 2.42599 0.0513473
433.195 2.41234 0.065078
239.8 2.05949 0.0576613
287.714 2.50496 0.0548257
339.861 2.47239 0.0717371
276.379 1.96779 0.0578188
321.08 3.6171 0.0564526
156.022 1.45213 0.0908292
306.056 2.8783 0.0827099
206.184 2.0604 0.0578473
241.821 2.24995 0.0760941
315.51 3.06124 0.0688945
270.519 2.89158 0.0843835
267.239 3.64177 0.0646067
331.293 3.98492 0.0919535
420.207 5.291 0.118148
228.97 3.21799 0.0804125
343.111 5.923 0.148108
237.811 3.75825 0.105073
237.134 2.52628 0.0925578
223.536 3.36431 0.0864905
231.612 4.16748 0.100522
116.662 1.96091 0.0920388
211.259 4.28422 0.115548
151.72 2.11042 0.0605372
138.095 2.8152 0.0924037
422.597 6.75469 0.199685
260.533 5.61782 0.152107
237.363 3.97081 0.0794775
189.242 3.12472 0.0787534
240.986 5.71325 0.120908
163.496 4.11465 0.109257
249.833 5.00631 0.137093
146.026 2.79192 0.0595109
322.464 7.28667 0.278601
94.951 2.23868 0.0827365
336.977 8.12934 0.219902
199.702 5.37413 0.178943
306.731 8.06615 0.288086
206.934 6.39759 0.296591
303.91 9.01681 0.240807
246.873 7.41248 0.256783
161.729 4.51578 0.2244
199.726 6.23836 0.220811
309.022 9.33696 0.428763
231.699 9.10265 0.403076
266.244 7.93308 0.265783
202.296 7.07416 0.24222
129.727 4.47682 0.229417
281.367 8.94672 0.298154
415.086 14.7374 0.58775
236.038 8.74926 0.330422
260.67 9.35264 0.414821
160.633 5.46427 0.270811
181.813 7.46868 0.300574
258.173 10.6754 0.43048
223.897 8.67646 0.388733
503.772 23.0071 0.941855
93.1811 3.9526 0.196015
122.895 4.96249 0.23965
171.859 7.3699 0.44301
210.297 9.90936 0.495821
200.653 10.6871 0.555176
194.251 9.68762 0.50009
357.405 16.0838 0.73456
216.656 12.1537 0.622136
114.499 5.4536 0.263391
174.284 9.38163 0.573764
184.396 10.2262 0.563521
234.28 11.5253 0.667303
204.437 11.7717 0.756851
197.436 11.8687 0.748454
138.032 7.15802 0.46594
139.119 8.72038 0.458119
189.214 10.582 0.70926
171.149 10.8335 0.791038
229.483 13.634 0.864248
129.892 7.37909 0.496499
162.562 10.6745 0.71081
152.812 10.0751 0.609947
241.46 15.6785 1.09769
208.821 12.4117 0.807773
131.823 8.50174 0.625065
196.753 13.3089 1.09592
234.558 17.0463 1.26655
124.433 9.11264 0.766302
128.365 9.5177 0.857485
177.388 11.5264 0.813416
149.814 11.5142 0.872322
211.003 16.058 1.29566
177.671 13.4506 1.15254
181.019 14.5435 1.36724
445.522 38.2802 3.11018
129.659 11.2211 0.96825
117.107 7.54582 0.548087
192.194 15.9061 1.22895
220.827 17.5738 1.4763
119.429 10.0162 0.746809
71.1509 6.28597 0.478393
133.857 12.3371 1.23477
286.781 26.0275 2.54435
115.165 9.11629 0.938708
250.311 21.3575 1.89509
92.4716 10.1248 1.0308
88.552 7.75576 0.819689
173.394 17.6167 1.71576
103.158 8.60764 0.889813
84.9733 8.40448 0.789659
173.398 17.379 1.65555
96.0194 10.1475 1.13565
155.946 17.7594 1.99848
107.254 11.2492 1.06846
143.283 14.9244 1.62509
131.078 16.4919 1.69772
152.446 15.2662 1.69765
200.237 21.6073 2.26864
160.265 20.0443 2.33315
156.294 17.9076 2.0147
119.698 15.3842 1.7765
68.0361 9.27737 1.09214
129.318 15.2916 1.77209
110.237 12.3747 1.5793
205.175 22.1725 2.67389
200.787 27.3325 3.27063
197.127 23.6192 2.80581
76.9382 9.5761 1.19955
157.83 20.4503 2.78426
110.486 14.8609 1.82586
109.467 14.0468 1.73514
103.734 13.6642 1.73772
90.3161 11.5838 1.62092
118.594 15.2884 2.13845
76.8937 12.0529 1.7543
90.3099 13.0072 1.78428
86.1347 16.3211 2.48537
125.192 18.3865 2.8354
68.3397 9.89779 1.61361
194.284 24.7448 3.16735
51.5569 6.8389 1.02258
123.616 16.4778 2.50419
140.421 19.7584 2.81346
91.4358 14.8977 2.37274
96.3026 15.0829 2.57652
55.4985 7.29033 1.19766
156.695 26.0535 4.20986
93.109 13.9642 2.1633
62.7983 11.5391 2.23605
208.764 29.47 4.45441
133.468 19.1482 3.19644
74.1907 14.0802 2.24952
95.4335 15.5366 2.54043
119.256 19.6487 3.74693
147.325 25.7627 4.41372
167.951 27.3837 4.78194
115.565 22.1894 3.88424
78.9001 10.7585 2.03405
85.8768 16.5273 3.36764
132.289 20.5202 3.51832
115.75 19.4805 3.45364
116.502 19.1477 3.38229
74.5302 14.8235 2.78274
99.5668 18.9553 3.43145
80.1198 15.1319 3.19735
91.0341 16.1584 3.2472
84.375 15.8126 3.19689
64.5624 11.2262 2.05898
74.5891 12.27 2.23509
84.2079 16.1113 3.15136
92.2166 18.0896 3.78136
83.2719 14.774 3.22326
103.711 20.7127 4.541
130.379 23.9969 4.53204
103.781 19.9035 4.5315
80.8258 17.975 3.78016
90.4975 16.3029 3.56319
104.999 20.7096 4.04324
40.8084 7.51928 1.60876
91.4624 20.1938 4.28094
109.451 22.456 5.18196
88.7134 19.2107 4.2369
85.1627 19.9 4.36815
65.9729 15.6553 3.59258
99.8653 20.8845 4.62355
64.5942 12.235 2.84815
102.474 21.2411 4.95424
55.1814 11.5157 2.62383
78.7594 18.7786 4.83156
118.529 27.2452 6.2778
109.433 26.3069 6.49017
102.966 20.5214 4.76429
72.6702 15.8597 3.92988
108.657 25.0604 6.30926
61.3779 14.6895 4.07415
88.0069 24.5991 6.35546
102.59 27.0659 6.91731
81.3536 16.8187 3.66436
74.1872 17.6571 4.59955
47.129 13.1878 3.85703
88.5132 22.366 5.08252
66.8936 20.6093 5.76775
90.6918 23.7887 6.05201
62.3125 15.4387 4.09767
58.242 15.4401 4.00322
96.3101 24.5616 6.30867
49.7596 15.432 4.76805
91.9012 25.2892 7.70425
83.4746 21.9427 5.89962
65.747 18.5463 4.84907
52.6373 17.0019 4.875
60.8428 17.4036 5.80103
82.1337 21.7891 6.15163
50.0744 14.5913 4.7236
56.5158 17.3036 5.48835
92.4831 22.6765 5.93158
82.5819 22.5287 6.10665
40.1343 11.6362 4.04246
68.6703 19.5974 5.83433
75.4097 21.1651 5.73659
40.683 12.14 3.60954
49.3212 15.6596 5.29474
52.9677 15.2723 4.28518
46.8657 14.1173 4.49892
101.066 29.9773 8.68216
88.1164 27.5424 9.15995
101.684 29.005 9.03782
91.8887 30.2754 9.74141
38.0828 11.3607 3.58376
28.1281 7.25056 2.31203
30.192 11.0185 3.73433
54.22 17.2302 5.66445
47.3495 15.3374 5.64518
46.7609 13.8226 3.83212
101.992 36.764 11.8552
33.9913 13.2881 4.7573
34.9648 14.8192 5.50905
98.4456 35.7186 12.6242
48.5375 15.2514 5.31295
66.1881 20.2238 7.05322
28.3041 10.4091 4.34363
57.4808 19.8724 7.15034
67.3771 23.6246 8.56515
77.3447 29.1702 10.3639
99.1145 37.9418 14.2264
35.1292 14.2217 5.26336
47.2701 17.1643 6.8339
51.4483 14.9457 4.9788
49.8616 22.2803 9.01754
56.3486 15.1502 4.01755
67.5606 23.0288 7.89332
81.6581 30.2864 11.6173
26.1696 11.4965 4.60104
39.5627 19.3606 8.71731
46.6339 17.7685 7.86307
77.316 27.608 10.2757
30.5579 13.3138 6.06892
58.0371 23.0549 8.48515
45.818 22.8069 10.4365
42.7806 14.4563 5.97994
48.6402 15.7774 5.87287
34.0317 12.1373 4.88804
58.3063 24.5153 8.96999
37.9566 15.6691 6.32748
39.0856 17.7909 7.86925
42.6223 16.0859 6.01494
28.5012 11.9121 5.82361
67.1568 24.8107 9.74962
52.6441 22.4747 9.40479
77.296 35.4637 17.2763
111.735 43.8272 17.4721
66.7014 25.23 9.68926
44.006 19.6201 9.53877
15.7073 6.82111 2.81587
28.363 16.0212 9.19214
64.4193 23.082 8.27547
29.7025 17.2338 8.97876
71.3965 32.6893 15.2932
46.4975 17.6959 7.41008
50.1817 27.7451 13.8324
68.8852 35.9819 18.4238
43.4274 16.5468 7.53553
38.0108 14.8777 6.02596
42.0751 21.5102 10.5606
57.8186 26.208 13.4613
87.4176 38.7968 16.731
38.2266 16.922 8.2098
33.4812 17.3415 8.50814
64.4187 31.1675 14.9571
44.1368 14.7131 5.67168
40.8753 19.4419 8.95321
22.5081 14.3515 7.83146
23.5009 11.5281 5.92304
49.7594 22.8571 11.3115
41.4189 22.6354 10.8506
66.76 35.3652 16.7912
35.0105 23.8302 14.8322
51.4691 24.5792 11.8942
49.8159 21.3929 11.2105
42.3266 22.5284 11.737
43.5128 20.0679 10.4137
52.1005 29.188 15.7179
50.8103 25.9692 14.3915
44.5391 19.6595 9.03322
31.5831 15.0664 8.53541
72.3958 31.7953 16.2761
38.2589 21.0041 12.112
47.1934 23.6818 12.112
48.4229 24.2086 13.3971
41.2069 22.9 12.1523
38.849 19.7566 9.65659
35.8703 20.6923 11.6027
23.2886 12.7464 8.18618
22.3563 11.4166 6.3628
33.6699 20.7669 12.1322
26.3771 13.0848 6.92944
31.8516 16.0622 7.61059
28.6724 16.2364 8.86916
42.0459 25.1829 14.1993
36.5475 19.5938 10.9766
26.4086 17.4817 11.0244
32.4568 17.1795 12.4309
42.7086 20.015 9.79804
34.4352 17.6827 9.10725
27.0142 16.5636 9.8597
39.0427 24.9686 14.1937
44.6701 26.5658 15.4403
23.0152 13.9907 9.15414
40.7562 23.5562 13.3411
41.306 26.1684 17.6614
32.8901 15.0151 8.34495
24.9394 14.7524 8.95457
14.9908 9.48583 6.4665
22.3509 11.87 7.22635
20.6876 14.0527 9.97654
43.9352 26.7101 16.4129
22.6404 16.4944 11.1199
32.0586 18.1275 11.9264
70.5776 42.5488 23.8073
20.8118 15.3589 10.9886
34.9903 21.4867 11.8005
25.8874 18.6572 13.8643
32.6394 17.679 9.77371
26.4701 18.1557 11.8094
28.4413 20.3259 14.0216
24.6966 20.8949 15.5635
20.464 14.6013 14.4928
89.7906 52.5743 31.3325
32.2438 18.8266 11.9482
30.6643 19.1177 11.9398
22.8132 15.0633 11.0315
36.5962 20.3783 11.239
40.5079 33.4243 24.0916
29.9782 15.3677 8.93058
17.8952 12.4362 9.43563
40.4563 27.3059 17.9557
38.6475 26.0097 17.1403
31.4223 23.9651 20.247
24.1623 13.1349 6.89044
19.3993 14.7875 11.3304
28.2273 19.1054 12.4056
22.0646 14.0653 10.546
35.6468 22.1051 14.3321
22.082 12.2319 8.06061
19.5215 16.3699 13.8774
35.5843 22.6494 14.977
21.1293 14.5738 10.8889
17.071 10.8993 7.2841
27.9724 22.0853 15.5898
27.1383 19.3983 15.0059
26.0333 16.6403 11.2329
23.3442 18.0763 14.0469
20.6565 14.9246 11.3711
16.6797 16.6748 17.0986
34.3447 23.5244 16.2359
29.424 21.0823 16.2668
20.0027 11.9994 9.03642
23.3516 17.2132 13.2607
24.327 16.9584 11.4585
23.5401 18.277 13.0276
53.19 40.391 29.0789
35.8253 31.4963 26.6139
34.5626 23.6542 16.812
16.9313 14.9146 15.3225
24.4015 15.0367 12.3066
30.3165 21.4552 14.7459
26.7661 20.633 15.0047
19.948 16.6854 15.9669
21.8353 17.441 13.3767
26.3916 24.1673 22.8619
19.4235 11.8395 9.62903
36.563 30.7591 22.8399
21.7306 14.1663 11.0434
33.2496 28.4905 20.471
21.6979 17.9647 15.7429
28.0914 25.905 21.4372
17.0455 12.3281 10.1962
28.6431 18.9226 14.3414
20.6339 17.9161 16.3348
31.5029 27.376 23.3687
41.8137 26.4273 17.2692
30.1634 27.6133 25.6551
25.8523 21.1834 18.9854
27.1547 23.1968 21.3304
18.5581 11.0297 8.43248
28.4864 22.517 18.2146
29.181 26.332 25.0552
26.2335 22.1093 19.3237
32.3305 29.4959 25.7519
28.1611 26.3075 22.5033
17.5083 15.9082 15.9548
25.4562 19.4091 13.4946
7.99459 9.70061 10.6855
28.1002 24.9314 21.555
23.1504 22.1463 18.6757
22.7944 23.5762 22.1224
20.7595 18.0301 14.1784
14.777 15.3094 13.8234
11.496 10.8991 11.5395
15.462 12.0635 10.8188
31.3254 27.6639 22.8574
19.8208 19.0928 17.5599
32.6048 31.637 30.5707
14.461 15.1988 17.7623
39.6427 32.9298 26.6725
18.4118 18.7305 19.1703
27.1248 23.9965 21.8769
27.9586 24.4306 21.5456
27.5227 23.554 23.2803
30.6682 26.0189 23.0548
14.8619 12.4238 10.3151
14.994 16.0249 16.9003
22.2904 20.3622 19.6984
23.9037 22.758 21.1979
18.49 20.1765 22.4142
25.4304 23.7893 25.5198
31.1977 28.2178 22.8986
12.9444 15.1547 19.6405
28.1005 21.6913 16.1867
18.5133 22.0436 22.5813
28.1423 27.6676 28.9979
17.7723 17.9507 16.9401
8.49183 12.5719 22.2027
53.1203 46.5274 34.6876
21.9168 23.9418 24.6054
22.0014 20.6339 20.1201
24.2006 23.9192 24.0667
15.3054 18.0984 22.7543
26.4988 16.8447 12.0762
18.5662 18.5607 19.5066
20.5111 22.79 25.812
24.9033 23.1462 23.5301
22.625 19.3746 17.6715
18.521 19.0393 17.7427
20.0014 24.819 28.2155
26.1939 24.0328 22.8768
31.3079 36.6284 38.3736
15.5906 16.4498 23.7221
18.3488 17.1988 14.8294
13.4789 12.7138 12.3574
16.8275 18.7523 19.0221
21.3406 22.7054 23.1196
15.7383 19.9528 22.735
12.9015 11.7103 11.5335
17.7649 21.3144 25.3922
19.8564 20.8857 20.225
7.64333 10.8123 19.0165
23.5138 21.9257 24.4434
20.1598 21.6947 25.1723
28.2516 29.2966 31.054
22.6936 22.0775 20.919
16.3619 18.1369 21.1691
12.8503 13.4357 13.3897
15.7333 19.7486 27.0093
33.7565 32.1809 26.8375
18.4236 28.2954 43.9423
33.7823 33.3594 30.3737
19.3592 18.3497 15.7915
11.8437 16.8099 22.059
21.785 25.19 28.4583
16.9493 24.2748 28.511
8.0945 10.3214 13.5475
21.2527 27.2166 32.4961
9.19551 8.89423 12.534
19.8758 22.5634 23.8616
26.0585 31.7888 37.9596
30.3694 40.8049 56.3802
47.4265 59.9752 72.4442
36.3737 27.4493 19.1935
17.212 20.4081 21.8481
14.2023 18.4648 22.7344
13.4333 16.5953 21.7557
17.0957 20.4212 23.4831
10.0442 13.1174 17.0964
13.6797 16.1335 20.7727
20.2798 20.0943 21.0972
25.9067 41.1138 58.0013
25.7884 22.4876 24.1587
14.4108 13.0507 14.84
11.5918 13.4657 18.2408
13.064 16.6803 22.251
11.6198 14.383 19.2754
13.7352 12.4022 15.2376
20.5705 24.7212 26.5509
12.0785 18.5816 26.8365
18.075 18.1449 19.6602
19.5488 24.406 28.2286
13.9781 13.1922 12.5462
11.4427 17.0892 19.8522
9.55773 14.7294 18.3018
9.87108 11.3564 12.9162
18.7196 27.1809 34.5288
18.2152 21.8607 24.9134
15.8434 25.1647 35.5055
19.964 26.6296 36.9866
21.4252 25.0277 28.4276
14.527 19.9594 25.1201
14.7905 15.822 22.7541
12.9953 12.8827 10.9581
11.5191 18.1816 23.4035
8.06054 12.8061 19.779
12.6619 16.1076 19.5263
24.0402 34.7781 41.5801
16.8165 24.4045 33.5373
10.4678 16.0344 25.8352
18.621 22.3347 28.2638
14.8982 18.9975 28.6413
20.301 24.6171 29.5869
11.5673 12.9983 17.9938
21.2127 25.7553 32.8415
11.4325 14.4264 17.8862
16.8294 22.7818 29.8265
12.5995 15.2316 20.159
16.9173 28.895 39.9376
14.0806 17.1531 23.1627
17.0921 24.1537 34.0842
13.9133 13.9797 15.0377
14.3663 24.3555 39.4482
9.16335 15.1397 32.8876
28.3655 31.8998 29.7116
8.17798 13.1898 19.9498
14.3659 28.2819 44.943
12.4155 10.5729 13.0678
8.4476 10.201 15.5147
12.5165 19.4142 27.7532
13.7033 17.3279 22.2022
8.25262 13.1297 24.8727
15.8693 19.182 21.6046
15.0317 22.1223 29.3165
5.75056 14.2913 31.9033
24.127 28.4556 33.577
9.57861 14.9003 29.8734
21.3572 26.1272 28.4189
7.53921 13.1196 23.6534
17.0443 22.3122 31.3845
16.078 18.5495 27.5785
18.8733 23.0767 24.604
12.3035 21.6701 28.3638
9.9092 19.3455 36.3774
19.5365 20.3301 20.8141
11.3879 18.3642 31.4672
11.3092 15.9576 20.1816
4.94229 10.0008 23.0997
8.54681 13.9161 24.5964
10.6078 14.8876 25.8497
16.6315 18.2351 17.2029
9.52365 14.493 21.9015
15.4137 22.2591 29.1267
8.46825 16.393 27.1935
17.9885 28.1603 40.5042
14.1725 18.0062 24.0731
13.2698 21.9598 30.3595
8.66885 17.4873 37.5023
11.9933 11.6234 15.8424
18.5952 25.0741 31.5192
9.9333 19.7362 32.9028
11.3854 18.2666 27.3252
5.87868 9.56167 18.6516
12.4866 18.0056 28.8492
13.0031 15.1067 19.5823
5.10351 7.17626 15.5261
13.1496 20.9912 25.6296
10.6099 18.295 27.2422
11.4546 22.4255 39.3699
13.587 25.0555 51.3769
16.2237 14.4528 15.137
11.6395 22.0572 37.1052
11.671 17.7319 27.3639
11.8497 23.8001 41.8772
15.4214 18.7123 32.0492
15.7336 20.6648 30.0862
19.2966 27.1766 32.0681
13.3755 25.2549 40.8962
11.1129 16.849 27.8898
10.4184 16.5033 22.0841
4.1995 9.52407 25.6806
12.8182 20.5053 32.0302
12.2013 16.1753 23.8398
14.7394 24.072 37.1402
14.6462 18.8919 23.6806
10.5523 19.4448 33.8768
12.8053 25.1065 36.7944
10.8133 21.8934 37.3075
9.40994 18.4276 29.2301
8.22765 17.2871 34.8329
8.03193 12.4907 25.2681
9.97852 16.9139 32.2533
10.6725 14.4885 24.67
10.2024 17.4976 29.4056
6.77848 10.5794 23.4769
12.7115 19.1809 34.5403
10.1204 13.9079 23.4115
14.7262 27.4302 57.6481
27.4394 31.2764 26.0602
7.64498 20.563 36.216
7.18742 14.3178 28.1356
8.68735 13.8183 24.4142
10.1694 16.0777 30.2433
14.4868 26.7844 47.5546
10.6619 14.2354 18.7364
6.26968 16.3444 33.3595
7.5508 9.4666 21.6481
12.4112 17.957 28.3477
10.674 13.0823 16.9594
10.4969 18.7779 29.1913
8.65988 20.9648 43.8171
5.91082 6.90022 16.5976
10.8097 19.3469 37.1128
14.5651 20.6987 27.7072
10.1396 21.215 40.3567
11.9775 22.7019 34.6786
6.38592 17.2432 45.5697
14.2229 25.4338 50.9976
8.54238 9.40471 18.1608
5.75751 13.6563 44.6647
23.1502 34.1511 41.9632
8.5734 14.0508 21.9392
8.90831 18.1608 35.4717
10.0401 18.0384 32.6793
12.5163 17.772 29.9769
8.62422 12.207 19.9437
11.0673 19.9019 24.6447
7.23054 17.1769 33.9519
9.17563 15.3781 26.8544
4.62486 8.92865 27.5247
10.7368 14.7762 21.7422
9.60052 15.847 27.1997
10.9063 16.0554 24.4194
7.29005 14.9017 26.374
7.065 14.3016 29.7953
10.5657 17.8888 26.8066
8.30103 16.41 31.8319
8.95666 16.1306 26.9523
14.1854 34.6757 63.541
7.72846 9.42639 23.2394
12.4355 22.5698 39.3087
11.2319 22.7807 48.686
8.03047 15.1453 36.5452
9.88649 14.9101 32.4351
8.58247 13.277 26.2575
11.2053 19.9623 37.2389
11.058 19.6487 36.8462
11.3717 22.1033 37.7804
10.43 15.8818 26.6239
10.2142 17.1845 24.4462
8.32992 22.5371 48.5212
9.56616 16.5069 35.9562
8.77512 15.5184 25.8148
10.837 22.6282 40.1376
8.04646 15.8591 38.781
12.1934 17.8341 24.535
10.5168 26.0786 50.2794
7.23638 12.3381 27.3213
7.00852 12.6145 16.6438
4.21931 12.1263 30.2758
10.7042 19.4235 32.7633
5.00467 9.84909 21.9003
6.15284 16.7032 37.5644
6.14084 12.5959 39.2385
16.0329 23.8026 26.4619
5.33564 13.6412 33.3414
6.77965 8.71206 16.9555
5.25111 10.3687 24.8447
10.1918 26.2652 61.2991
13.3739 20.73 34.6624
8.92066 16.692 39.1047
11.1996 18.8801 31.3712
9.61041 17.2911 25.7702
5.54575 10.8333 19.9252
9.45697 24.5522 53.5668
8.77988 10.0008 14.7456
6.34523 15.4052 29.8401
5.52762 15.89 40.7146
12.7579 22.6065 36.5052
7.55066 17.8896 32.163
7.19367 19.7497 51.9655
9.96752 14.9257 30.3869
7.63325 14.8039 35.0616
11.6749 23.2347 28.5011
4.27527 14.5468 38.2915
9.10836 14.9929 27.4559
7.09129 15.1123 36.433
9.09682 20.1593 40.1694
8.32644 20.3003 44.2079
10.1927 19.2905 40.6724
9.92338 17.9451 34.366
5.08683 13.3257 34.9767
6.99035 12.558 36.3887
15.8214 28.0632 44.5509
7.19496 14.5437 32.2098
7.96894 13.4877 26.0186
6.8878 15.8219 29.7333
7.71546 16.7647 32.401
4.31615 7.95381 21.0565
6.17042 14.3605 26.9587
5.59651 12.7306 24.1614
3.70805 7.91288 22.0921
8.59824 19.55 36.7076
6.61678 15.0682 36.5585
7.2401 13.6101 32.8659
9.29299 21.1225 36.1626
6.02409 18.5516 52.7642
9.18451 15.7468 38.2905
12.4498 26.8517 55.5143
8.60695 16.0151 25.2957
3.22138 9.9897 30.6234
8.41867 12.4807 25.1663
9.38568 18.5771 35.8989
6.26516 11.6409 21.2178
3.59499 10.1814 30.3362
11.376 29.6672 70.2131
13.2927 32.4091 71.6868
8.84502 9.50996 19.335
5.62674 10.7629 22.3179
3.89314 6.43341 13.4962
2.68618 5.14925 14.0362
4.60992 11.2177 34.0426
7.939 14.5564 26.8175
4.55651 10.8516 26.7292
8.73392 13.8276 20.2242
5.19435 17.3378 44.373
8.33255 14.4838 35.4869
9.54975 20.678 48.118
9.76726 18.1929 33.2738
6.57707 16.9789 47.8391
9.01663 16.188 33.5002
7.12064 16.5786 33.2128
7.72321 16.3716 35.3217
6.68418 13.7409 34.6901
9.54727 23.3729 45.9256
5.99576 13.4849 37.9145
6.75319 12.0866 24.0038
4.63181 10.2672 28.6326
8.53841 18.73 40.3734
7.42039 19.6702 42.4057
7.67383 14.1981 32.162
5.44939 12.9724 37.8779
7.02076 10.7566 20.2942
5.63455 13.0648 25.6277
3.53674 8.25081 20.9
4.8209 10.7736 26.1516
3.92002 9.72963 26.5567
7.78794 16.4483 35.8386
7.9272 20.6284 40.1494
4.9399 10.479 34.6612
10.2968 22.9886 38.0655
1.7028 7.08285 33.7656
7.36964 19.0419 52.6744
9.36531 14.3154 28.4499
5.82364 13.6012 34.5276
6.53957 14.1137 29.7994
7.36197 13.8907 22.6402
4.19058 19.0004 65.3479
9.90396 14.2362 21.2499
3.08523 7.03217 28.6137
10.6976 19.4098 31.4278
6.96241 20.5778 40.581
5.02424 12.609 28.4809
2.97544 9.42519 33.3004
5.94016 12.0246 22.5438
4.05714 11.6596 34.4906
5.86569 10.9739 23.6671
4.51986 12.0004 34.6811
8.2682 18.2219 34.5188
3.94827 11.2176 31.8007
4.35249 11.8747 32.8188
6.1006 13.0339 27.6958
5.17557 17.7469 47.6056
6.90894 12.7422 30.1236
5.88025 12.8847 31.4863
6.73363 15.0836 29.5706
3.52947 10.7613 41.6104
8.43643 14.048 28.4258
6.31042 16.6626 30.9045
3.32959 9.2786 26.2144
4.86596 13.3812 40.2528
5.173 9.30176 27.067
5.33265 11.8557 29.8368
5.93514 15.551 45.0131
6.06855 8.54311 20.7911
4.92265 11.6797 19.8108
2.35367 7.54578 25.6327
4.40098 9.42554 32.8072
5.50098 9.68141 19.3879
3.46395 6.76128 21.7973
6.23524 16.4626 28.248
4.59852 12.2802 29.9332
4.39782 11.7346 34.939
6.34413 14.3831 36.411
6.27613 17.763 42.6114
6.04028 16.5159 47.8661
8.55952 19.7019 33.545
4.02093 11.5748 34.1246
5.65902 16.6792 39.6431
4.54844 8.61226 16.2751
2.97936 12.1811 33.7893
5.97391 16.8446 49.5225
5.51224 10.7638 31.9324
4.48932 7.67678 26.4792
8.18176 23.3486 37.8819
2.4267 10.8191 37.361
4.80655 9.54427 25.707
4.33525 7.63993 17.4287
3.22581 9.09456 24.8838
6.89371 21.3485 52.2533
5.27635 8.43489 31.3548
6.81244 16.6055 57.8229
15.5762 40.8534 88.9986
8.74119 18.7231 39.1192
5.28462 12.3034 54.8208
11.9171 26.7561 40.6412
5.66184 20.2528 51.6235
5.76859 14.2085 29.8381
4.29016 12.2161 32.0425
3.79195 13.3356 40.6907
5.49995 13.8704 33.0845
5.74042 17.5157 41.7395
4.48401 14.3921 49.8909
6.27821 15.0392 42.2469
4.9938 16.0653 60.2604
7.2904 13.6496 31.5106
5.21376 12.6977 41.2402
5.84133 12.0556 27.0172
3.51353 10.0795 30.2596
4.29302 9.77759 34.3299
5.92094 15.1161 30.1715
4.19603 17.3086 55.0266
6.92676 14.5832 37.7675
5.6202 11.4261 28.1502
6.34817 16.1826 33.4385
3.04433 10.6103 33.5267
4.68075 11.6579 35.0839
5.03974 10.4712 27.9398
4.2557 10.2596 31.6672
3.93865 4.71321 18.4695
5.39622 10.7057 21.0179
5.05204 14.7225 32.6684
5.61302 22.3878 62.9927
6.10117 13.6662 36.4345
5.31794 19.9072 62.4529
5.07472 7.65654 15.4092
3.8688 10.8376 31.4769
2.68128 10.6797 33.9293
3.87201 9.5204 36.0798
5.37429 10.4678 28.7391
4.09348 9.99606 24.2458
3.5807 13.312 41.0289
6.1818 15.4989 38.3248
5.05583 15.0543 37.2973
4.69092 14.727 45.9231
5.60975 12.7607 33.0763
4.21582 10.7619 26.233
3.86793 13.9199 50.9942
7.85984 23.4061 51.2797
5.31214 10.5355 32.0825
6.37905 16.4129 37.0904
4.00318 10.1244 33.3772
4.53002 11.4526 35.3337
3.30186 5.68126 19.7758
3.21633 7.28149 19.9838
3.68967 15.7387 43.643
3.98166 7.93024 26.4357
4.29798 10.2544 25.0309
3.40247 17.6819 58.938
6.14015 12.1219 45.4362
5.44698 12.0992 26.0108
4.87252 15.0801 34.7574
3.33129 6.81589 22.3
3.77319 12.7032 37.3928
4.58752 8.70264 12.5587
3.51783 17.7435 48.9672
2.80506 6.57555 31.0128
3.71405 7.54347 19.3479
2.92018 9.83972 28.0974
3.36974 12.8321 50.8716
5.63281 8.58183 21.1513
3.32468 7.06139 17.323
3.59695 11.5646 34.7317
6.0628 14.7305 32.5942
3.37849 9.53688 36.4637
5.02672 14.7452 42.4564
4.14037 7.60859 28.4394
4.97709 16.6907 43.0336
4.50047 14.0847 28.0656
2.42873 9.28937 29.6088
3.11741 7.56379 18.6075
2.57618 9.57706 29.5485
3.94871 13.149 46.6486
4.32215 10.2234 29.6533
3.74051 12.5786 38.4004
3.86445 9.6217 30.1968
3.75271 8.73938 33.06
4.30975 8.99064 32.5281
5.35721 13.4252 23.5467
3.59467 11.2963 32.1761
3.74387 14.4137 38.8336
5.02553 17.9765 58.1801
4.56707 8.49404 36.7033
5.1634 12.399 25.2779
4.18331 20.6179 67.3601
4.24395 6.62523 22.6253
4.0006 13.6873 29.8706
2.81144 13.9167 77.822
10.3177 17.5465 27.1895
1.98666 4.54492 25.4484
4.69958 12.8365 31.946
4.41862 13.5132 39.7445
4.57243 10.5328 22.7533
3.19642 9.88881 25.996
3.17676 11.826 46.4808
6.36343 17.1817 38.0705
3.03712 12.4005 32.9354
2.884 12.7032 50.3719
5.03774 8.89013 22.665
3.0798 12.5951 47.0387
5.5799 11.5662 30.2027
4.79065 16.5379 58.2527
5.6785 13.457 36.5018
4.21118 13.1125 28.3393
3.14259 9.97402 32.1254
2.52061 6.49585 19.3166
3.16423 11.2367 31.8106
3.15092 9.64509 26.3432
3.37031 12.2252 43.3829
3.69139 10.5141 23.1563
2.20319 8.65933 41.8754
3.80611 7.54626 28.0446
2.59321 7.03914 23.5549
3.01773 9.79199 31.4078
3.48813 7.92201 34.0775
4.83453 15.2266 40.4176
4.38445 9.12327 20.4579
3.94274 18.7421 59.4465
4.47871 11.9624 23.2177
2.10182 7.71981 22.2097
2.20921 9.794 43.7359
4.24399 11.0472 28.4859
2.84706 9.17361 42.2288
5.96289 17.2277 36.4343
3.48974 9.63186 21.6658
2.44078 9.93944 31.5127
2.85554 11.699 48.3643
5.20614 10.0036 25.2218
2.27368 8.72726 48.2734
5.42322 10.9516 23.5537
2.97541 12.4576 65.8159
6.12742 10.8433 17.4677
2.45075 9.77572 31.0152
3.83256 8.34205 27.7172
4.13751 11.5154 24.0908
2.65764 6.17731 15.3259
1.67828 9.09563 39.5847
3.98209 6.55561 20.1739
2.13181 7.22385 30.1315
3.18572 7.18328 16.3235
2.57151 11.735 40.9329
3.56829 13.0346 39.6707
4.22355 10.538 23.6442
2.29273 9.57531 47.7547
5.50402 11.2422 30.356
3.60798 11.3705 29.76
3.9185 14.4239 35.6315
3.18116 11.3844 34.8146
3.07235 5.58799 11.8597
1.14798 6.12553 30.4138
4.10962 10.7149 37.6662
4.14475 15.459 52.2217
3.90411 8.45559 29.6784
2.92018 7.38182 33.9373
3.87909 12.5343 49.2472
5.794 13.4954 29.066
2.59182 6.49495 28.2344
4.25816 11.4976 26.7853
3.32085 11.7432 40.6301
4.2622 13.128 45.6819
4.54771 14.3741 48.0313
3.8742 13.0415 37.067
3.3376 6.64173 33.7297
4.85138 18.7294 44.1447
2.90762 11.2439 32.3164
3.74868 12.4499 35.0188
2.84683 8.61088 31.4145
4.12184 16.6432 46.4343
3.67733 8.54343 27.2878
2.54914 8.86754 40.2568
4.09293 9.34232 28.071
2.53894 10.8051 32.972
3.31919 12.0085 37.3155
2.84172 8.27758 39.2982
3.1254 12.014 39.5786
4.2378 13.038 35.8584
3.69727 9.78012 25.0618
2.15507 9.2865 30.9212
3.05838 7.47985 34.8306
3.86107 12.6759 55.5497
6.05319 16.1097 38.7368
2.34124 6.39947 29.5684
3.12286 10.5215 57.9491
5.73024 15.3978 81.0623
10.5468 30.8048 50.2222
3.342 11.6134 46.1867
4.63502 15.244 46.9089
4.97287 11.7555 36.8247
2.89061 4.74503 11.7645
1.37257 8.33209 40.0176
3.53521 8.06079 25.1031
2.79126 13.5823 40.9346
2.94843 7.29445 24.5995
2.70077 6.26449 30.0844
3.22119 9.0515 32.2932
2.97703 7.43344 20.5412
2.48689 9.52564 28.8754
3.4625 9.66655 43.9152
3.76273 12.0755 28.3046
2.9073 12.3013 40.6532
3.40481 10.5148 33.1953
3.33772 10.5822 38.9614
4.28385 12.0441 35.478
2.28293 8.02079 29.7379
2.58625 8.88562 28.4452
3.37262 10.6363 28.663
2.6956 13.9773 57.9949
4.42227 6.38828 29.2083
4.22921 14.092 38.0666
3.46294 8.3785 23.7036
2.6989 8.84508 33.5101
3.3356 8.108 21.0283
2.70455 13.8847 44.2133
2.42392 8.26441 52.6739
5.8735 18.8557 45.6381
4.51862 19.8496 51.1218
2.54678 5.91553 27.2735
2.67867 11.1274 55.029
4.50258 8.70634 22.35
3.33057 12.8005 30.3232
2.11394 5.49478 19.4437
1.31314 4.45587 15.328
1.13814 9.58691 38.4653
3.47868 9.06061 35.7236
3.00543 9.65549 29.5789
2.75712 8.97378 46.6647
4.63553 11.4943 26.2845
2.62058 13.208 56.2595
4.72059 11.4801 26.4102
2.63471 10.6091 30.9674
1.76534 3.76615 30.5483
3.34848 11.4388 35.5808
3.04574 4.89907 15.4108
1.71555 4.95738 22.7495
2.69151 7.65702 28.6642
3.34525 12.963 42.8866
4.66944 12.7293 35.6319
3.20251 12.7926 39.7255
2.26136 5.60691 11.9451
1.37428 9.02258 29.4762
1.73118 5.66651 27.6727
2.74961 8.8739 27.412
2.73615 10.8314 36.6229
2.11934 4.52084 29.3137
3.44153 15.1157 59.2896
4.64767 11.7146 32.2448
3.25063 14.4495 58.6443
4.11348 9.65554 25.0287
1.4114 7.59212 40.9723
2.636 5.91619 30.5329
3.29296 12.1018 34.1996
2.56657 5.16263 22.5778
3.48188 12.6887 32.0456
2.8849 14.5196 45.8856
3.1106 7.29773 33.0758
2.56192 9.181 31.6245
2.80772 13.5494 69.5553
5.03188 12.5107 46.6886
4.01857 14.2151 41.4798
2.84108 11.0036 24.3749
1.40123 6.00459 17.9287
1.69153 7.40421 37.5396
3.03147 12.1829 43.5819
3.50229 9.72425 28.9307
2.57457 7.99721 39.1381
4.68232 16.1952 35.4976
1.89093 8.21173 33.5516
2.33825 6.66313 22.5232
2.10997 12.2662 56.0448
4.33757 13.0161 31.4528
1.69845 5.14245 29.2172
3.04904 5.60316 17.8691
1.70651 7.42007 27.4129
1.43444 6.35472 33.4172
2.71061 9.29925 35.8061
2.47325 7.72093 19.8694
1.98148 7.88936 36.1425
2.89991 5.77914 22.7371
2.66045 7.51032 22.7
3.4027 22.7863 118.608
8.60001 21.6986 51.7731
3.59703 14.9334 47.7809
3.57832 6.93495 23.9266
2.42079 9.8751 52.6633
4.30695 11.6672 29.8094
2.57563 10.998 30.3039
2.26688 11.616 29.6406
2.30857 10.6517 49.9842
2.64875 6.79983 25.1093
2.26488 8.5974 39.3812
2.78951 8.36555 35.3349
3.28152 9.94819 31.3907
2.48037 7.88133 30.127
2.74658 7.30732 23.3487
2.01352 8.40079 32.8509
3.05013 9.84193 26.4791
2.07326 7.11895 21.3249
2.40484 9.74239 23.6493
1.32819 4.64341 34.0503
2.88264 12.872 45.2428
2.8057 5.85103 26.5544
2.19679 6.45669 28.7072
2.21718 9.44207 23.0341
1.83635 7.64971 31.287
2.02081 4.19783 19.2539
1.87642 10.8922 38.8199
3.04554 10.176 40.7947
2.94494 7.86484 40.9561
3.82572 10.8387 25.4662
1.59735 9.03288 43.6769
4.06033 13.6461 28.7368
1.75456 5.00556 24.0742
1.79715 7.27508 21.8235
2.12783 9.72583 33.4465
1.77508 8.92942 38.3226
2.84459 5.38926 26.7312
2.59403 8.64834 20.4209
1.66224 9.21225 38.0014
2.77941 11.0806 41.5597
2.75103 7.56688 28.7799
2.51521 8.26969 34.3136
2.70502 5.42043 21.7232
1.92087 4.28682 22.2558
1.54538 4.96008 32.085
2.73256 7.67118 24.034
2.29701 14.9845 32.2687
1.93018 6.67241 26.065
2.39528 8.80211 37.7128
2.98177 7.4997 14.718
0.967666 3.68576 38.7571
3.58225 7.61672 24.4469
2.58998 15.0723 53.015
3.28332 11.7404 42.5914
3.69034 10.7206 29.7604
2.37832 7.82203 27.9222
2.06322 4.69656 14.2726
1.68591 6.2693 25.0007
2.01313 10.4149 30.8907
2.02606 9.37274 45.3443
3.70239 13.5324 66.2241
4.31341 9.94668 19.6831
1.29485 5.66139 41.838
4.07488 9.70561 22.3122
1.65713 9.28263 47.1423
3.48476 12.9229 27.7214
2.5267 11.9079 41.5577
2.89705 6.59721 34.1657
2.52223 7.88535 31.2455
2.76426 12.2021 35.2759
2.01191 5.04676 40.2747
3.61755 13.1693 41.7531
2.37531 10.8556 36.764
2.98569 9.01515 38.4773
2.84917 7.6617 27.9764
2.28479 7.53116 28.2424
1.93497 5.53832 41.3853
3.13118 9.92823 18.5228
1.09398 6.70569 25.3279
1.91909 7.31644 52.6397
4.66043 18.8534 40.5199
2.15951 8.74599 53.4053
3.94794 9.3251 32.625
2.29558 9.8344 34.675
2.9232 8.49441 28.5619
1.93629 6.40078 38.3065
2.38847 6.60115 18.4037
1.74629 7.95276 20.5492
1.63905 12.0138 33.0267
1.92002 6.98058 30.4423
2.25164 8.44549 33.6296
2.73275 5.62151 26.6221
2.49217 12.3591 46.0441
2.85109 12.4872 44.2076
3.18111 8.39555 26.1616
1.92786 6.03918 31.4298
2.13525 19.4345 96.3399
6.37958 15.4867 34.7939
2.60354 5.61296 33.4693
2.25211 6.66785 24.1438
1.90768 7.48652 30.5881
2.47349 12.1356 33.7316
2.46431 5.66827 25.569
2.3081 6.72123 14.9995
1.27954 7.49962 37.9636
2.54222 9.63189 31.8785
2.50211 10.5362 31.7482
1.78985 5.20052 28.1744
1.79197 6.57701 27.4341
2.18157 6.47487 20.9596
1.59425 11.1475 61.0726
4.85922 13.3653 45.3182
3.38519 6.08518 33.6792
3.25571 11.0841 34.7016
2.55556 11.1035 34.0099
1.99284 8.73189 36.7632
2.52414 13.7289 38.4599
2.17151 4.63309 27.1344
1.67431 7.08265 25.9819
1.71567 5.93109 24.3341
1.60919 9.24732 39.9926
3.10683 4.36778 22.5294
2.0971 10.1437 36.2097
2.48243 3.4763 34.4558
3.43147 13.3985 24.2825
1.80686 4.88248 20.1339
1.73381 6.98013 24.1228
1.54494 7.10756 36.7467
2.86367 8.1791 17.5006
0.98198 7.59732 43.1252
2.6499 7.30367 24.9109
1.34827 5.24585 23.919
2.00017 8.83794 28.6717
1.86885 3.3249 30.7586
2.76659 10.6213 30.5219
1.78285 5.46869 15.9738
1.37025 6.88992 31.2128
2.21125 10.528 27.1064
1.69402 6.29112 25.0328
1.32639 5.62905 19.8001
1.33311 5.9847 29.0554
1.96989 6.28149 14.8828
1.10842 3.74903 19.0188
1.60689 9.3476 51.4701
3.51666 8.51184 32.499
2.5001 10.3408 36.5068
2.07876 6.45608 25.6775
2.26861 7.83936 32.7318
2.26595 4.95624 16.6706
1.53888 7.28328 18.1734
1.356 9.81369 51.6538
3.72833 7.53508 37.2933
2.82321 8.08431 29.4828
2.54604 8.8805 27.0832
1.78263 8.41277 38.0393
2.48601 10.5652 39.4046
2.38736 7.08782 38.971
3.00578 7.90207 15.181
1.17926 5.48074 14.7558
1.24091 8.45079 33.1395
2.51151 7.95341 23.8366
1.86849 7.14924 24.5192
1.29753 8.83332 35.14
1.74997 5.15158 33.7048
2.18173 8.03615 38.4483
2.83145 8.54854 35.536
2.49065 9.0655 23.7118
1.26386 8.15762 16.3742
1.17328 5.1645 27.8449
1.84173 6.46268 36.8283
2.45281 8.94704 36.1461
2.17173 7.17578 21.4495
1.38786 11.7509 50.9123
3.51163 9.84071 34.4703
2.31062 7.13901 30.1398
2.18201 7.59893 33.9822
2.0168 8.99895 25.4955
1.40893 4.62911 29.284
2.16667 8.04443 33.7607
2.36447 13.7417 48.5388
2.73497 8.72342 35.0729
2.83486 6.35065 33.8118
2.32817 9.19867 46.6353
3.74961 13.0091 35.8664
2.51054 6.10196 19.9163
1.1357 4.10642 19.7722
2.09148 8.02637 20.915
1.20953 5.33284 35.8619
2.71132 6.87205 29.7441
1.89023 9.97563 32.3778
1.80094 7.94675 28.6718
1.80177 5.42476 46.0916
3.0212 21.5821 116.921
7.6621 21.0618 32.312
2.55156 8.20837 20.6123
1.13578 4.46596 26.6656
2.20754 5.64105 21.8879
1.89411 11.7067 49.9623
3.78644 7.79083 18.4222
1.54977 4.19605 37.1814
2.84142 5.65376 13.4044
1.14776 10.6251 48.9697
3.42194 7.35589 25.5193
2.04852 4.69016 13.4057
1.17156 4.1557 19.5674
1.55141 7.66789 46.8587
3.08908 8.06433 12.2712
0.795152 6.46483 32.0075
2.13802 6.59649 32.6417
2.19151 9.7534 31.6766
2.53575 7.08549 20.7092
1.38387 4.40887 23.2297
2.25782 7.06466 31.234
2.39203 11.7843 36.558
2.31943 7.76417 53.0364
3.68512 8.97712 21.4056
1.50891 7.57138 35.603
2.50717 9.18473 18.8071
0.99423 9.00958 42.1499
2.51677 7.58883 24.814
1.73245 4.43237 19.8628
1.31294 10.5234 42.0702
2.45339 5.14162 27.1517
2.23889 7.66987 25.0601
1.7679 9.64241 24.8303
1.31552 6.62957 40.4588
2.45369 13.1782 46.3045
3.14955 4.66634 39.8898
2.73348 7.1587 22.0474
1.79019 5.95392 51.3705
3.5102 19.2486 47.8529
3.25306 9.94948 30.785
1.94423 4.08199 18.4856
1.46016 7.53873 25.5434
1.49556 6.935 44.3854
3.17678 5.93877 29.2549
2.21471 8.76031 32.8216
2.27803 8.03941 20.1975
1.51416 5.2895 23.8502
1.85847 10.1369 36.9659
2.53905 7.34064 40.5141
3.39431 8.48668 32.8254
2.3594 12.7972 30.624
2.13551 5.69119 21.192
1.41985 7.06137 18.4893
1.3485 3.66047 21.6272
1.71294 3.96601 26.7874
1.65764 12.1089 55.5294
3.60936 11.3546 30.7537
1.68999 7.56785 35.4108
2.53341 8.16745 15.1725
0.890442 4.90476 31.685
2.26432 7.99543 11.7453
0.68567 6.14022 33.7739
2.29036 7.51506 31.5902
2.19954 8.9236 33.4099
1.96208 12.1393 59.1318
3.91871 7.35092 24.4462
1.31295 9.98477 37.7831
2.70593 4.99484 38.6486
2.43175 10.8386 31.053
1.74395 4.65032 42.4036
2.8169 12.8915 44.1806
2.65393 13.6004 39.4807
2.71506 6.83779 36.6555
2.23233 7.60981 25.6274
1.89354 5.43539 20.6351
1.52261 4.52593 16.7311
1.26883 6.5628 16.2657
1.0152 7.38604 36.4348
2.7542 4.23363 12.8755
0.924277 5.25022 27.7079
1.78387 9.45346 29.409
1.89952 6.0259 38.0075
2.42266 7.22079 32.8676
2.26244 8.77073 29.1341
2.31971 7.36139 33.8237
2.21502 6.60232 30.8508
2.29985 11.878 33.7097
2.2419 9.17984 29.2489
1.73514 8.19693 50.2697
3.29108 11.7023 30.2566
2.02379 8.84027 34.3425
2.47797 6.39225 21.3826
1.62944 10.4749 42.997
2.29138 7.07681 32.0158
2.17767 7.05951 24.1207
1.73262 5.65648 22.3838
1.55295 17.2981 144.032
10.0337 0 0