# pn-170911/RbIIR-43-TWTF-1280-1959.psd
# Power spectrum* (dif=0,1,2) (really just |FT|^2)
# NOTE: only the first half! (symmetric)
# weeks: 1280-1959
# 10 clock-days, 0 excluded
# PSD: 1441
325.457 0.0736687 0.0108855
14780.9 0.130952 0.00437148
75683.7 1.32366 0.00460191
14003.7 0.651372 0.00482928
23563.8 1.72995 0.00406032
3657.28 0.441733 0.004388
3564.62 0.559976 0.00481384
1537.8 0.361535 0.00455174
3422.42 1.11241 0.00538266
1650.93 0.567642 0.00378204
1309.83 0.61112 0.00463039
855.535 0.510484 0.00457595
1797.7 1.25835 0.00690673
790.484 0.645602 0.0044763
976.629 0.787626 0.00591059
583.217 0.636247 0.00305731
741.253 0.887727 0.00322339
454.859 0.636477 0.00591704
849.076 1.29804 0.0073363
460.193 0.794427 0.00762884
697.123 1.38802 0.00886519
164.711 0.362616 0.00649664
565.385 1.31886 0.00548795
460.305 1.14283 0.00275608
350.002 0.962484 0.00734524
563.757 1.60602 0.00820053
351.72 1.19571 0.00976091
246.768 0.853608 0.00557134
518.839 1.9431 0.00747081
174.812 0.731705 0.00744175
218.358 1.01884 0.00560825
176.799 0.814063 0.00836658
218.793 1.04411 0.0062474
395.714 2.0701 0.011801
180.844 0.94917 0.01318
232.755 1.36041 0.0163845
188.967 1.14175 0.00738184
130.174 0.800632 0.0113772
230.654 1.55798 0.00875866
257.484 1.72483 0.0193951
270.206 2.03084 0.0219232
150.072 1.21389 0.0145239
265.277 2.08618 0.0220707
117.914 1.00305 0.0148674
221.547 1.93227 0.0215123
199.214 1.78684 0.0198192
201.124 1.91435 0.0210674
252.985 2.62842 0.0296376
146.05 1.67837 0.0165981
174.948 2.10747 0.0257016
166.785 1.94578 0.0272118
204.598 2.52885 0.044311
350.985 4.57098 0.0659702
94.9035 1.14522 0.0183655
99.4674 1.46707 0.0187435
159.204 2.34403 0.0345581
179.285 2.78588 0.0477962
120.571 1.84353 0.0331867
136.35 2.213 0.038182
156.868 2.68353 0.0391501
88.0978 1.55439 0.0346099
141.944 2.47272 0.0472205
199.3 3.64774 0.0900329
131.417 2.43326 0.0531677
124.768 2.50475 0.052701
128.713 2.5157 0.0587543
100.633 2.2278 0.0452105
147.154 3.09917 0.0727436
190.865 4.01274 0.0829961
171.46 3.95526 0.101175
165.675 3.75103 0.0862992
105.993 2.61689 0.0687068
153.197 3.68014 0.0764406
141.433 3.6656 0.102644
123.924 3.30041 0.0903394
79.9565 2.16169 0.0553082
175.446 5.01085 0.136851
71.2156 2.19521 0.068791
72.5926 1.9074 0.0467936
101.321 2.98754 0.110044
132.716 3.96045 0.104444
83.8205 2.81969 0.0843956
245.208 7.79624 0.263004
142.566 4.69177 0.143057
196.268 6.51379 0.237106
120.586 3.88812 0.143584
112.091 3.81778 0.143353
83.842 3.1497 0.13361
141.209 5.28425 0.218403
108.76 4.03447 0.152096
107.98 4.35582 0.171056
110.89 4.15358 0.146239
100.429 3.94295 0.166406
88.0683 3.61418 0.157532
103.512 4.16689 0.186701
186.684 8.22156 0.387478
137.641 5.76247 0.273535
181.491 7.91039 0.346044
107.943 4.91663 0.243897
189.236 8.87842 0.397995
72.5176 3.60709 0.181503
72.8525 3.5174 0.189963
98.3926 4.68027 0.209393
66.2741 3.31214 0.173306
57.084 2.97275 0.17299
90.801 5.04883 0.269972
122.405 6.54588 0.364125
64.0357 3.45406 0.184897
52.1021 3.04336 0.186998
122.121 6.90603 0.398658
102.205 5.81664 0.337528
70.9525 4.54888 0.25576
121.496 6.86654 0.43316
85.2769 5.20078 0.322149
125.351 7.7846 0.464923
95.061 5.65814 0.339575
89.3563 5.9404 0.372263
111.925 7.49066 0.50318
112.555 7.20798 0.432862
130.975 8.51233 0.557449
123.076 8.49102 0.579424
82.05 5.81201 0.414787
108.15 7.91487 0.5462
98.8347 7.27446 0.527138
79.0586 5.58881 0.41765
68.7561 5.58854 0.431284
94.9418 6.93629 0.506118
72.681 5.32761 0.395272
85.8203 6.77828 0.55233
117.692 9.18483 0.728021
65.445 5.24132 0.412903
98.5289 8.77013 0.781773
125.848 9.72051 0.754584
109.274 8.58695 0.682452
112.912 9.56198 0.813519
117.499 10.8107 0.969238
90.3025 8.2888 0.738087
70.6504 6.65075 0.616018
69.7898 6.79719 0.660181
113.942 10.4485 0.944284
38.7483 4.21145 0.484309
62.9752 5.35798 0.494758
49.4767 4.42423 0.418773
69.3505 6.35596 0.588843
112.436 11.2897 1.07367
97.0468 9.00269 0.885334
71.3354 6.71396 0.64118
64.4805 7.0291 0.766646
69.8778 7.67794 0.826229
71.9339 7.24816 0.709489
82.9949 9.52706 1.01119
78.4229 8.2477 0.89242
141.61 15.0851 1.66207
49.6958 5.97509 0.752103
75.0386 8.58502 1.01216
156.639 18.0768 2.16082
155.955 17.7314 2.0255
79.8637 8.14054 0.89622
109.865 12.903 1.49656
67.1343 8.47214 1.08845
103.897 11.7116 1.31172
73.136 8.56434 1.00481
106.096 13.7886 1.77352
70.3683 8.71246 1.0324
82.968 10.0571 1.27195
98.6567 12.8464 1.59103
87.0343 11.8028 1.61078
76.3767 9.19275 1.10158
109.135 15.4296 2.23932
159.654 21.2609 2.74706
79.987 10.7966 1.4799
63.6865 8.46199 1.19549
151.739 21.6683 2.92738
67.6164 9.527 1.31944
92.5836 13.0189 1.80597
62.0602 8.77754 1.27169
81.4321 12.3417 1.82587
77.9574 11.3638 1.64101
78.2923 12.5216 2.07847
53.7461 7.92403 1.24024
64.0831 10.5857 1.70893
100.826 14.2628 1.97929
76.455 11.7035 1.87436
57.6001 9.20201 1.54938
79.8168 12.4555 1.85669
76.5983 12.3743 1.94901
83.7505 12.8374 1.87888
80.9296 13.8536 2.32885
28.5094 4.49061 0.806076
55.1523 9.06962 1.43694
29.3734 5.26169 0.964625
91.0295 16.7127 2.90714
163.979 27.9292 4.60964
45.1571 7.61744 1.35353
81.7442 14.913 2.64855
37.2985 6.90824 1.32907
85.271 14.007 2.33193
60.175 12.2818 2.51499
79.9482 14.5572 2.58849
62.4921 11.1783 2.07545
82.1187 15.4277 2.90856
46.8391 8.98153 1.69702
52.7916 10.1495 2.00811
49.3011 9.06733 1.7997
76.5355 15.4147 3.15041
116.399 21.8797 3.91964
39.4164 7.8529 1.49346
45.2091 10.3264 2.19852
103.239 21.4932 4.37803
57.6628 12.5109 2.68371
55.755 13.683 3.41609
66.4694 11.8378 2.19556
46.5483 9.0395 1.79478
111.566 23.4863 4.94583
34.7641 8.38868 2.03865
63.4787 12.794 2.68906
101.687 21.9144 4.41684
71.0864 17.157 4.04036
121.312 26.4504 5.66704
93.1209 22.6723 5.44292
40.4863 9.37172 2.54304
68.9666 13.3222 2.57002
63.4866 15.7072 3.81554
84.0773 17.7302 3.53878
38.8999 10.3725 2.60335
51.8529 14.8969 4.0294
64.5663 13.3929 2.99849
65.0044 15.5283 3.69816
55.9185 12.0691 2.67127
45.0798 12.1669 3.44358
67.4161 17.2264 4.54737
66.8547 15.9642 3.76352
69.4235 16.7258 4.06542
76.2227 19.4661 4.89946
47.1637 10.9389 2.65196
42.9017 10.0528 2.51259
50.6587 13.317 3.39281
22.3025 5.87501 1.57291
50.7544 13.0499 3.33462
63.585 19.2826 5.7726
75.7816 19.2855 4.94135
73.479 18.4916 4.49726
45.1903 14.1383 4.29924
85.0469 25.647 7.59968
46.6112 12.2451 3.53661
83.5044 22.4341 6.11227
62.5386 18.0679 5.36841
52.1136 13.8677 3.69069
44.1263 12.4518 3.48454
38.1098 10.4618 2.901
25.5394 8.0259 2.59189
42.3455 11.9593 3.33273
41.0065 12.1226 3.53875
41.3517 11.3656 3.19861
32.0742 8.61488 2.20956
65.1496 21.926 6.96564
37.2288 11.4584 3.66485
40.6329 10.6643 2.79646
85.5052 27.9512 8.75295
67.3717 21.207 6.82482
58.9588 18.7631 5.97333
24.3293 8.42061 2.94862
42.5461 14.4848 5.00376
36.2895 10.7053 3.24129
31.9256 9.03807 2.69053
50.4643 15.8271 5.22014
127.271 42.2272 13.5251
41.5188 13.9753 5.0897
62.0364 19.0526 5.83649
36.2854 12.7643 4.50107
48.7977 16.0339 5.31217
47.4138 18.5968 7.13644
83.2177 25.4627 7.84182
43.919 15.2755 5.21084
34.1734 11.6587 3.76406
48.8162 18.4607 6.8164
35.501 13.5633 5.25516
49.8835 15.8178 5.19962
43.3981 15.0218 5.1008
51.1041 20.6105 8.12089
25.0666 8.80513 3.33581
35.2324 11.7644 4.28266
56.7824 19.0921 6.58129
35.944 12.3905 4.24153
33.5334 13.2495 5.28329
56.1689 20.2141 7.29396
47.4428 18.66 7.31329
76.0873 31.1568 12.5474
89.1531 31.332 11.001
37.3209 15.8032 6.90658
35.0651 12.2309 4.42003
46.1691 18.6276 7.3481
46.4368 18.1664 7.41824
46.1578 16.1325 5.4734
35.9417 13.8333 5.19303
63.1472 28.634 12.5006
21.6327 8.04563 3.47542
38.2104 16.1649 7.26994
47.3076 17.6395 6.51821
52.5508 21.4584 8.72184
58.9864 25.2027 10.235
57.6189 26.4249 12.1255
53.1416 18.7735 6.57316
33.5773 15.2037 6.67869
33.3855 14.0454 6.06816
35.2765 15.3662 6.9055
31.6094 11.7044 4.29648
53.6066 26.9289 12.8979
41.0203 16.3004 6.80172
54.2256 24.4854 10.661
31.1042 12.9694 5.75792
42.3252 16.6619 6.39318
35.8176 16.6329 7.37775
30.12 15.5202 8.10615
66.7682 30.0961 13.3606
18.053 6.71911 2.85787
37.1635 16.019 7.0095
48.2895 24.4318 12.2952
48.4592 19.9828 8.37768
23.5466 10.735 5.25263
61.9178 29.3565 13.3171
38.4029 16.383 6.85609
24.4911 12.5295 6.20655
38.1828 18.6128 8.98932
22.2395 10.2045 4.60009
25.9119 15.0561 8.30387
27.3598 13.6271 7.07505
29.6334 14.0793 6.96042
29.0919 14.5363 7.91079
37.5486 16.5976 7.67557
38.3234 17.8313 8.34807
29.7204 17.5271 9.90307
36.597 18.8325 10.3389
50.1392 21.7854 9.48806
22.6991 10.3651 5.15867
41.7312 19.584 9.00656
30.6142 14.6647 6.87496
47.9086 23.8446 11.4704
33.8157 17.845 9.35666
35.0411 20.5166 11.2234
33.6569 16.8319 8.64874
19.7705 10.3786 5.79497
27.7034 13.966 7.05217
34.8139 17.6578 8.85337
50.0473 27.2811 14.1377
40.4002 23.6663 12.9369
28.4037 18.2735 11.4438
41.7439 22.5577 12.8294
29.3972 14.6991 8.05901
51.9686 28.6157 14.9179
35.2137 18.9402 10.0383
29.3847 17.3377 10.2279
21.7937 13.2085 8.40245
33.0386 19.2429 11.3674
25.1602 12.2672 6.1683
39.0955 22.6444 12.0162
37.2192 29.655 22.8727
134.86 70.0887 33.7922
33.0976 19.5699 11.514
55.5261 37.8224 23.6024
17.8124 11.7995 9.57651
26.5914 12.3572 6.4172
23.1238 15.5761 10.3008
22.08 12.732 8.39984
30.0695 15.6857 8.56651
31.595 19.5516 12.1312
39.4659 22.0784 12.6584
30.1124 16.34 8.2034
23.343 16.3192 10.5785
31.7685 21.0708 14.031
36.9431 22.5021 14.0674
33.9312 21.7191 13.6396
27.1121 16.561 10.7575
36.7152 22.2046 13.2237
34.6376 20.8349 12.2339
45.7416 32.0538 21.4292
21.076 12.7143 9.13086
39.6736 25.8019 16.8425
33.6387 20.8565 12.8222
26.2457 19.0874 13.6363
46.1961 37.5478 31.3558
124.605 76.2312 45.3721
68.5406 38.8022 21.2788
28.0816 23.8031 19.7442
43.801 24.1778 14.3989
33.8367 19.504 11.2191
31.1107 20.3044 11.9053
20.5061 15.205 10.9555
31.0654 20.6881 13.5195
37.9222 28.1024 19.8631
28.5658 18.6636 12.6412
20.0985 13.3091 9.20799
30.4352 22.2118 15.7261
18.9344 13.7356 10.7006
22.8636 15.0069 10.3691
24.829 16.2491 10.8463
32.9527 22.4677 14.2914
18.0144 17.0251 15.6615
36.4709 23.5699 15.5289
26.4107 17.9182 12.096
13.8728 10.5027 8.75395
31.8515 22.9539 15.8706
17.9236 13.0745 10.4986
30.0804 21.92 15.7535
24.7562 17.8478 13.3045
24.5374 17.1405 12.0718
18.3348 13.9594 10.7661
17.2134 14.8109 13.2512
29.784 20.9814 15.417
29.3965 20.3769 14.4253
22.9846 15.2575 10.22
32.2534 27.1049 21.5787
25.309 21.8071 20.1144
32.1449 19.9202 13.3495
20.2298 14.3197 13.0715
105.302 81.5309 56.0131
22.9034 15.6543 11.872
31.6312 26.729 21.8287
26.342 21.0294 18.3679
45.5197 33.7217 24.0925
24.1975 18.7426 14.3852
19.0397 17.3385 16.2343
32.9002 23.0378 15.5586
28.4498 27.5688 25.4308
22.5906 13.4706 9.82694
35.4168 27.5417 20.2953
23.2798 20.4023 17.9637
21.6517 17.1788 14.9076
30.2456 21.9029 15.6857
25.7229 22.2004 18.3766
16.3795 11.6485 8.79565
20.9593 19.2289 17.4745
36.755 29.5538 23.6685
21.4454 14.0775 9.38359
36.9674 33.2247 25.8802
18.2415 14.8745 11.6285
24.725 27.3725 27.0564
13.0906 7.01049 5.73324
26.4702 22.3808 17.3808
24.1357 26.9714 29.0508
31.5426 19.7988 13.0171
14.5598 15.7593 22.9164
140.752 114.744 79.6669
18.6488 27.05 34.0338
28.7385 17.8072 12.2821
21.44 16.8446 12.6274
15.8371 14.5933 13.2161
21.0499 20.6405 20.4514
34.68 27.9335 21.329
23.5666 21.6732 18.8596
16.1628 16.4437 17.1417
47.8619 55.4488 62.4449
65.3206 40.8505 24.3191
49.672 51.2219 46.9505
20.9959 15.3433 13.5863
28.8392 25.868 20.9688
6.25147 6.17069 7.35497
20.6973 20.6955 20.0341
18.762 16.6886 16.608
20.221 17.2459 14.9877
14.8232 11.0499 8.45069
13.9036 16.0014 18.3632
25.2323 20.2773 15.8352
19.2972 17.0547 15.253
27.4111 25.3334 21.7441
12.94 13.5834 14.2552
16.5225 14.1805 11.8581
9.02418 11.0072 13.4149
16.7011 15.1095 15.3007
23.7558 20.5402 16.2151
16.2933 16.3206 14.8838
13.9978 14.8374 15.2438
19.3523 21.0516 23.3483
23.8789 19.0335 14.3512
7.92663 8.51594 9.39564
16.7934 18.8071 20.0386
8.80721 6.43427 7.5273
17.0746 13.8433 11.8093
24.2395 22.024 17.2662
13.5922 14.4574 14.0088
29.62 34.2895 33.5623
11.17 14.8413 20.2882
11.8119 8.12306 7.46599
17.0101 19.4122 21.07
17.1606 16.3995 17.1062
16.4634 14.6926 14.2079
20.6788 19.1338 16.2992
20.3594 24.0197 24.9675
16.9394 19.0642 20.1849
9.09268 11.1749 16.1106
18.9749 17.0648 14.3813
9.76561 14.3403 21.6002
30.4768 25.5284 18.9728
14.9738 18.8161 21.1548
15.4287 15.5885 15.2764
10.4341 11.8458 12.7367
7.73368 11.5172 17.5632
22.9339 22.7596 22.3103
12.9216 13.1182 14.926
14.4474 16.3717 18.9496
19.8922 19.8617 18.7031
14.5596 21.4828 30.9212
24.0866 17.8056 13.3745
20.1969 25.1999 28.5676
14.6598 15.7325 19.5283
26.3381 26.7732 24.7916
9.64526 9.40771 9.73584
11.223 13.699 16.7054
24.1458 27.0572 28.4773
15.3081 19.5919 27.056
23.2091 18.5888 14.171
19.3784 24.3929 25.5751
11.1663 12.9058 14.8071
13.7947 18.0644 23.2798
19.4158 19.9633 22.8064
30.0643 32.0864 31.6185
21.778 27.0726 29.592
15.2175 19.1035 24.3919
18.0546 20.3105 22.3481
10.3649 14.5207 20.7375
17.2674 18.4784 20.556
11.7705 12.9498 15.2984
13.7687 16.3319 21.4354
24.8483 29.5983 34.3785
21.7875 22.7399 23.1629
11.3478 13.6804 17.7582
15.9689 17.7228 20.6238
18.4815 21.4364 23.4961
11.0038 12.0753 13.2615
12.998 19.2284 26.0949
13.1839 17.1584 25.7904
25.9697 29.3094 32.032
11.8788 13.0191 19.0389
19.7449 20.4785 20.0573
14.7474 18.4977 21.222
12.9757 16.0375 18.4235
10.911 17.5512 28.2797
15.5201 14.305 15.7307
16.2678 16.2841 14.3239
13.6579 22.1851 31.597
17.2094 19.1352 21.3989
11.0405 12.3649 14.197
11.5784 13.9516 14.6939
9.75097 14.347 20.223
18.8707 23.7762 27.7994
12.9131 15.3775 19.0037
14.8615 20.694 25.6947
10.9285 17.2939 29.0594
20.616 19.6262 18.4019
15.1196 20.1807 23.6412
11.0096 18.3891 29.2291
17.2333 20.1198 24.627
12.1037 14.3627 19.6063
15.2681 19.2689 24.7274
11.5541 12.5175 15.9166
15.8314 17.5858 16.8205
8.67976 14.8021 24.2146
16.329 19.0369 21.7635
15.1978 16.5241 14.5501
12.0434 20.6601 27.9027
8.14943 11.7407 17.8669
11.5138 16.9914 25.1949
14.8943 19.6876 27.0781
18.3881 21.9229 23.1354
5.99271 11.5221 22.3889
16.1698 20.8755 27.8152
15.1809 17.5549 18.782
7.91174 12.53 20.1204
16.2714 24.9409 37.8829
19.8345 23.0682 26.1748
11.2787 15.5044 22.7249
17.431 23.3312 28.6515
11.4293 15.0055 19.8095
10.9648 16.0043 23.1831
12.1849 17.4181 24.9965
14.1655 21.7082 35.4509
26.0601 35.7857 46.7994
20.2519 23.6236 27.6475
15.761 21.531 26.4729
13.2476 21.133 29.2246
7.41453 12.4227 23.5429
20.723 32.4378 48.4889
17.2927 20.5089 24.0603
10.0914 17.0456 27.9071
9.54391 13.1147 20.1831
9.71468 13.8403 21.2009
10.5387 16.3973 27.0285
9.4622 10.0788 14.4312
9.08764 11.0444 14.4077
8.1457 12.9835 25.4622
20.4975 23.8078 23.7693
11.3228 16.7398 18.6055
7.44571 17.333 31.6018
14.3548 22.0545 35.7869
10.7248 12.4134 20.8251
14.3157 15.4864 15.2222
7.53322 10.8306 14.6368
13.1563 21.3913 28.6001
12.6473 25.6149 48.0339
18.6221 21.043 26.3945
17.9091 26.1139 30.0372
9.65526 22.407 45.0608
16.4404 20.3836 30.002
10.7842 11.4213 14.8698
18.5053 28.5003 36.1055
9.95799 15.7136 20.9608
6.27621 12.7145 22.6186
7.90871 12.0614 20.6805
8.94886 11.4547 12.6347
6.91931 17.8311 35.8332
11.5296 15.1949 25.4459
12.0628 15.8488 21.2843
8.13447 11.3663 19.2331
16.7759 27.9298 40.8354
10.3814 14.947 25.4278
11.0404 14.1296 19.8674
11.9735 17.1083 21.268
8.81795 20.451 42.061
18.559 25.0144 34.8784
12.6566 17.1258 23.3836
10.5857 17.0491 25.2363
8.84335 15.5914 27.3927
10.6621 15.2325 26.7273
18.443 28.0346 39.4312
16.1977 24.8649 34.3373
10.7244 17.7388 27.6753
7.33498 10.0723 14.4997
7.66896 14.9993 26.7544
13.7688 27.1087 47.3262
8.40205 8.77116 15.0548
11.1797 18.2584 31.3761
14.8405 20.2313 26.4375
14.0159 23.4851 30.9618
7.687 17.4352 33.2781
8.75473 15.114 27.9116
9.08939 16.5427 32.946
12.1444 18.7078 33.7448
12.1621 13.5335 12.9771
6.51765 11.799 18.999
6.35177 11.6959 23.0286
10.7321 18.2548 29.9557
12.1823 18.0233 22.2094
6.92055 14.4148 26.0146
8.30958 13.5629 20.65
7.20105 16.7868 36.4797
13.533 18.9713 27.9005
9.54779 14.7612 23.1756
9.17023 14.6182 20.3684
8.14172 16.219 28.404
6.95905 10.2676 15.285
6.6366 14.5031 28.0022
7.80068 10.9837 16.1227
6.17452 11.547 17.9435
6.30795 16.9044 39.1229
14.2514 26.8 54.0271
14.5153 17.9511 26.1861
13.6067 22.7581 34.4854
10.2967 19.1175 33.245
8.98156 12.6184 17.9703
6.72191 12.6718 21.3892
8.76182 17.6274 31.483
7.32698 13.6241 27.8395
9.13532 13.0212 18.024
5.60874 10.535 18.6667
8.96269 19.037 35.1194
10.1809 20.4057 40.3362
9.17767 15.409 29.6454
8.29729 12.3054 23.4279
10.2668 20.4848 42.7608
16.4099 25.9419 41.9704
11.953 17.7182 25.6585
12.0674 26.5201 48.9049
13.8501 25.0265 41.7093
8.4798 14.9975 29.0432
7.21063 14.2343 32.5226
9.93302 12.5843 17.166
6.00903 9.65929 15.5898
6.2487 11.1566 19.3471
5.64327 8.65086 12.6742
5.78635 10.9953 15.9152
4.27376 10.9817 26.3998
10.031 18.425 30.4995
8.02095 18.1929 39.7963
10.1127 15.5406 23.8583
5.2969 9.33872 17.9982
8.39879 18.7594 38.1991
5.98071 9.72801 27.9462
17.1474 31.1929 47.5147
6.58867 10.0899 20.5135
9.14746 16.4481 27.6527
10.063 17.8283 24.0869
2.55786 8.13225 24.0944
9.09933 15.445 26.8769
9.31012 17.7175 30.3003
8.15305 16.7662 30.7482
7.80885 16.9432 32.5918
5.96845 10.1773 19.5053
4.44935 8.01005 15.8682
6.65741 15.9629 31.026
4.56648 9.46595 26.9831
7.31005 10.4377 23.302
14.5343 31.8539 58.2852
8.29362 11.053 20.9103
7.51402 12.8996 24.4511
9.45975 16.5666 25.467
10.2575 24.0249 44.5489
7.59048 16.2608 35.756
7.65331 13.7205 28.771
6.24296 8.41705 14.3194
9.72959 24.7 53.2863
12.9303 20.3799 28.2662
5.76806 15.09 35.9315
9.87993 17.8894 30.0594
6.32799 13.2333 26.8454
7.71969 17.0037 32.6972
3.34468 5.38564 18.7236
8.91848 16.8066 26.7376
5.77557 16.175 39.6924
7.89687 14.1258 34.3466
12.4364 22.1888 34.3116
5.78075 12.8536 26.9482
7.57465 18.9818 46.2665
9.89608 17.9478 39.7587
10.0451 16.1221 29.4895
10.649 22.9293 42.3236
6.01369 9.89994 24.2303
10.8217 24.8744 50.8498
9.74948 15.4984 27.5784
6.90922 12.8107 24.0006
6.36217 11.0498 19.3213
8.62673 21.0943 39.3301
5.19947 9.29313 20.5971
5.64806 12.0922 24.7861
5.82073 11.0489 21.7717
7.46652 17.8209 32.9529
4.41978 9.73461 25.2796
8.13802 17.2635 35.0761
6.70812 13.0924 26.918
7.284 15.5971 30.8542
6.52016 14.9885 33.3342
7.983 17.2765 34.8568
8.20741 20.1832 46.8471
8.75474 16.0987 32.749
5.37626 10.6086 26.9452
7.82982 14.2746 25.1038
5.15251 10.4894 19.9074
3.92278 9.69809 24.4156
6.51569 15.719 36.3703
7.14265 14.1803 31.8435
6.83648 13.9729 32.6193
7.62739 14.6183 29.0583
3.69785 5.73618 22.4036
11.9333 24.8565 46.2314
10.0776 18.522 27.7657
3.72722 9.29493 23.5061
5.49349 12.731 28.163
5.02142 8.76131 16.6287
4.43816 11.1867 28.9865
6.44258 11.6213 22.3803
8.3616 23.4293 54.4218
8.87197 16.0113 36.0664
11.3933 24.402 42.0064
7.55099 19.3993 41.9632
7.81193 19.0657 41.2483
5.2684 9.90229 24.9326
6.55958 15.8801 37.5391
5.89798 9.32348 18.2106
4.96843 12.5754 33.376
10.07 24.9696 53.6121
8.76128 19.3525 47.7575
7.7308 12.2428 23.2962
5.38004 9.57566 16.1668
4.83157 12.714 25.7597
6.55613 19.6003 46.3643
5.02777 10.766 40.6377
13.0841 25.8472 42.0779
7.07677 18.1802 41.8333
5.11712 9.67216 30.044
10.8632 24.8187 50.5222
8.63838 18.2532 37.9415
6.68561 13.9567 27.0926
4.85794 11.8174 24.9608
4.93721 11.9673 25.4395
4.2225 12.652 35.6569
7.60314 18.0219 45.2738
9.81544 23.3051 52.8861
9.30629 19.2938 40.695
7.93529 22.3261 61.7832
10.2154 15.5543 26.7605
7.71341 23.1647 55.3816
6.3368 9.29922 22.1016
7.29901 17.4466 33.3299
5.83887 14.7419 32.9213
6.01317 17.9568 47.4832
6.19378 9.77689 23.8317
7.13099 15.7538 27.1052
2.65659 5.90983 16.686
4.07759 11.3834 26.7851
3.46602 9.52449 35.8842
7.57634 12.2638 22.1653
6.80929 18.4723 42.1704
6.94847 13.7308 21.1494
4.33484 18.8475 58.4667
8.01806 11.1324 22.5336
7.80105 22.4555 51.0822
7.29627 20.1682 64.0962
11.8754 21.7735 44.1698
8.64337 18.618 32.5148
3.74518 10.9042 32.1944
5.06398 8.71215 18.5764
4.24865 9.85686 27.2604
8.07286 20.0381 40.1045
6.89328 19.6664 45.5862
5.53128 12.7994 38.1288
7.84964 16.3517 26.9463
3.10174 8.62854 26.9556
7.6966 21.6011 50.0428
6.82033 19.152 49.3445
5.79539 12.3523 37.7795
7.64518 14.698 30.84
7.99688 22.489 48.5099
5.54501 12.4209 26.9034
3.3714 8.81084 23.7855
2.80014 8.57764 36.9508
8.48474 18.3334 35.2564
5.23355 12.8282 30.7049
4.31432 10.9226 30.1457
3.72345 6.12295 22.0047
5.98704 12.3424 26.006
5.22382 11.8724 20.9442
3.53384 10.3034 27.6484
5.18017 12.3884 23.2862
3.5316 13.5441 41.6912
5.02689 8.22486 21.7405
5.44177 15.1952 41.2634
6.92378 13.1585 18.1224
2.88028 11.4533 33.9004
4.58601 9.96417 21.1698
3.11923 9.90828 32.1742
4.85275 9.68801 20.9221
4.12685 12.2762 33.0516
4.99788 11.0398 18.9294
2.17245 10.5782 42.3293
6.87331 13.8679 32.3485
5.0919 10.4192 23.5522
5.4815 15.5136 32.5254
3.25883 11.4613 43.8661
8.01709 17.3365 36.1695
4.32993 9.22309 21.5786
4.77011 15.9819 45.1798
6.30322 12.8314 30.1852
5.53049 15.2977 36.9329
4.09831 7.04859 13.9045
3.53841 11.4633 27.2204
3.89505 12.0184 36.1932
6.01526 16.6943 38.9571
4.29697 10.3693 34.4031
6.24398 13.4894 26.4783
4.49474 13.2401 28.5889
3.28434 11.1448 29.5752
3.31303 11.0892 39.8055
5.65399 11.6744 26.6317
5.66598 21.2346 57.8677
5.23143 15.9212 70.9191
10.969 20.2669 42.3359
6.04648 11.0988 18.8979
3.14812 10.2024 32.5753
5.72273 13.9459 34.2087
5.10531 13.1435 36.8902
7.27399 22.6297 53.4094
4.44963 8.14146 26.3039
5.05731 14.8425 45.9999
7.32478 16.5729 39.9451
5.86553 10.9541 17.2136
3.52683 11.1558 28.5764
5.24308 16.9808 36.1731
3.03863 9.8302 36.5631
5.80434 12.8424 26.1613
4.02229 14.6754 45.9886
6.01278 13.8128 31.7054
4.31139 14.4435 45.7403
6.40533 14.3642 27.1822
3.46627 11.8861 31.5108
3.03812 8.73748 32.0154
5.59785 15.4179 37.2601
5.14032 17.2779 47.7504
5.14361 14.8275 49.4801
7.36792 16.8621 32.1497
2.75751 8.98815 29.6753
3.74933 13.4264 47.47
5.5014 10.3442 26.1373
2.93579 6.80096 29.5454
7.16077 20.0963 37.2409
3.18585 12.38 46.4065
5.41741 9.66156 16.4118
1.80837 8.3447 31.5695
3.97262 11.4704 37.8861
3.36526 5.54456 30.8721
6.42731 12.9891 26.9639
5.53768 17.6059 47.3564
5.69889 11.9099 22.061
3.52878 10.7097 22.6619
2.65096 10.099 30.1701
3.14584 9.2708 28.9398
3.02678 6.13991 20.7729
4.47311 15.4489 45.7215
6.21291 17.3471 44.0411
4.95808 10.01 15.9769
2.21954 8.65093 22.2647
3.36434 15.9964 49.1365
3.77265 10.0234 40.7937
5.04663 11.5233 34.1613
3.64983 7.85655 29.6538
4.25827 7.05545 14.0844
3.11817 10.4233 26.933
3.79855 11.876 36.6742
6.46281 21.9426 58.3269
5.35221 11.9483 27.8519
3.03454 10.082 32.0252
3.49861 6.84458 13.4285
1.19705 3.70098 18.9153
4.40609 15.4124 42.6858
4.46098 11.8854 35.6073
5.36489 18.0262 52.4247
5.45332 12.7171 41.8577
6.17539 16.1316 33.8784
2.76372 6.97829 30.8239
5.92553 15.6633 26.7616
2.66874 10.714 29.231
3.13428 12.0941 36.8505
2.86297 8.2163 37.2214
4.88807 11.4516 34.005
4.31537 9.3806 21.7263
3.66819 11.5782 26.3747
2.82209 9.91009 35.0338
4.1696 8.69037 14.4323
1.97281 9.10818 30.2146
4.0614 14.9248 44.3922
4.25692 12.9273 36.4842
3.24387 10.0195 39.6234
4.40435 9.37762 19.8776
2.10173 6.54653 21.5798
2.19897 5.07311 13.0611
2.20802 11.191 46.7654
5.76965 13.9263 29.8763
2.81866 9.16909 30.2084
3.58674 12.8614 40.0042
3.701 11.0911 45.7224
5.37121 11.3995 32.545
3.87966 9.1992 24.4216
3.91518 14.5396 50.0574
6.22047 14.8065 30.0472
2.82999 6.31098 14.0968
3.1049 13.3991 31.5437
2.57743 10.5986 35.3859
2.37718 5.1625 24.4386
3.42267 8.97468 25.039
3.02404 9.73909 25.288
1.95654 6.8153 43.6519
7.74268 24.8913 72.3632
9.11143 28.6144 67.5124
4.98751 13.0265 34.919
2.95792 8.49422 28.1333
2.89199 7.94964 27.9913
3.51247 12.0492 40.3063
4.55576 13.914 42.7045
4.26473 10.9558 31.0466
2.89656 8.46182 33.0606
3.66484 7.35157 23.0147
4.09932 13.3788 34.4481
4.11549 12.9217 28.3976
2.84979 9.78961 23.9973
1.95867 7.19914 21.6834
1.80899 6.20499 32.5331
5.09535 14.4381 24.926
2.18749 12.0319 44.1159
3.73698 9.54784 26.4973
2.13306 7.21723 30.1438
2.93708 6.79776 26.9639
4.85073 20.0995 62.7743
4.76718 8.98099 21.318
1.87671 5.84202 24.4422
2.45919 6.3796 27.7598
3.60298 10.4693 29.7927
3.83905 15.3106 52.8268
4.98053 9.90913 23.0616
2.69602 9.94927 37.2962
4.68277 12.3754 24.9763
2.24681 7.7851 23.4184
2.57447 10.4889 43.0694
5.25345 16.6655 50.2731
5.16725 13.3387 30.3911
2.91288 9.44935 32.7036
3.59571 10.9677 28.2433
2.34119 4.68343 19.8187
4.46313 19.8457 56.1131
4.36294 13.4834 46.5525
5.06072 14.8038 39.4126
3.71788 11.3111 24.8145
1.72784 6.27468 23.4954
1.6992 4.11855 23.6231
2.93135 7.99231 28.7188
3.77207 11.0948 26.7889
2.76534 8.08826 13.8507
1.54378 8.83572 30.1063
2.44231 7.15149 26.2299
3.18974 11.3343 29.8548
2.32966 7.15592 27.518
3.76328 15.2996 47.6728
5.44742 23.5197 72.4926
5.11552 10.6504 25.0322
2.41594 12.0958 44.6931
3.2134 6.11099 23.9071
3.13713 12.2343 43.7785
3.49229 8.42346 33.4253
4.19973 10.8375 17.2796
1.96816 14.9629 64.1167
4.85432 8.57168 30.0981
3.77728 13.7667 44.4612
3.97827 10.0041 22.5211
1.97126 9.96104 48.4773
4.29531 7.76143 26.4337
3.66405 11.8633 30.402
3.09396 9.72669 19.1683
1.57854 8.21731 36.0859
3.71139 10.2002 25.5362
2.4592 8.89578 23.4897
2.27562 11.0937 38.5255
2.793 6.58587 24.9084
2.73411 8.19337 27.275
3.80693 17.5979 50.3646
3.64441 11.8243 38.9982
2.93945 7.7559 22.1842
1.93071 7.39083 25.0168
1.90513 6.74654 34.0496
3.57191 11.6892 50.9062
5.91197 19.8661 42.8981
1.8612 2.81828 17.7993
2.18883 8.57938 31.4221
3.07895 8.83667 20.4837
1.39182 7.66853 38.3211
3.24214 8.07276 35.9388
4.25018 14.6844 38.5803
2.77897 7.25621 23.1322
1.83008 4.64194 17.5641
2.14614 10.9652 43.0823
3.22828 4.61965 15.4082
2.38413 12.0235 45.7531
3.59819 7.35919 31.1967
3.9754 12.4217 31.7749
2.81847 9.38845 33.8545
3.50825 12.8076 45.57
4.75634 16.7321 46.9927
3.73719 9.1449 23.7129
2.54512 10.7511 28.4096
2.04957 10.2874 56.9017
5.8674 19.017 47.9283
3.00322 6.4744 18.2589
1.78437 8.83622 31.9182
2.42102 11.8651 64.3229
5.12012 9.68606 34.9942
3.21686 6.20216 26.5147
4.07675 14.7973 32.0769
2.66782 8.59684 26.354
2.82814 12.5671 37.3705
3.19028 10.6434 29.3954
2.35014 9.73584 41.8913
3.2135 7.62611 37.8266
4.8409 15.8805 24.037
1.82747 11.856 37.0523
2.04673 6.21095 25.9366
1.84347 5.37324 37.0187
3.9388 11.9932 27.5509
1.98129 6.89852 29.1864
2.98648 9.68099 23.1688
1.69979 7.81398 42.8632
4.12145 11.6454 18.9499
1.00095 5.79579 30.7004
2.76283 7.74388 24.457
2.756 15.3547 68.3258
5.3299 11.7777 25.4546
1.88171 7.35005 33.3095
3.2895 10.9663 30.9347
2.31836 6.46715 15.5843
1.49729 7.68759 32.1921
2.49614 8.31879 30.2619
2.09696 4.34943 16.9373
1.65193 6.85307 43.2991
5.25182 18.7947 35.8009
1.75289 4.49695 24.844
2.56889 9.19387 21.3776
1.43953 5.21131 23.7116
2.55732 11.4015 38.0884
2.50984 7.42282 35.1628
3.34797 9.95948 39.0302
4.5546 17.7801 40.087
4.02736 32.0446 130.947
8.81857 29.9986 181.501
16.7834 38.8003 53.2331
3.63247 14.4832 33.5597
1.86874 8.00407 43.0252
3.62852 9.31683 35.1191
3.8195 16.1629 51.077
3.79934 13.1581 45.9595
3.37998 9.19526 28.0845
2.35879 8.19788 28.7528
2.47622 9.97662 36.4982
2.69672 7.03979 20.0832
1.40725 4.91781 26.8434
2.54378 9.2127 27.2321
2.10894 5.90838 19.7278
1.89587 7.30798 21.8549
1.67978 6.46125 22.7832
1.7922 5.15793 22.0984
2.39032 10.6245 33.6292
2.54915 10.3108 30.6853
1.90592 5.73775 26.7026
2.4351 9.10969 34.5555
2.50649 4.83064 13.0577
1.39679 7.76667 30.697
2.44379 7.15217 22.3006
1.89137 6.42106 19.1521
1.42212 6.38825 34.6545
3.1643 8.74282 19.7808
1.81771 9.53249 35.9886
2.62598 8.06516 22.2304
1.57299 5.71946 21.1583
1.71923 7.39427 24.2421
1.67694 6.76355 28.7026
2.16992 6.70622 23.0438
2.08461 10.7407 31.7435
1.74445 5.91928 33.6629
2.78605 8.80979 40.8379
3.30512 9.21621 31.6649
2.53481 8.78894 42.0042
3.87525 13.6009 34.7174
2.59756 11.3592 37.2027
2.17983 5.57962 36.0762
3.39556 11.0258 33.3114
2.52098 6.97844 19.3126
1.36236 4.91733 32.6909
3.15457 10.6942 29.0287
2.4178 10.5297 39.9617
3.12896 11.53 37.5697
2.82087 8.71992 28.2819
2.34966 8.64292 25.951
1.86323 6.0716 18.1075
1.32317 4.92898 16.782
1.31149 7.04029 31.4539
2.40809 10.7957 47.8255
3.42127 8.00451 19.0382
1.52236 12.6355 88.6727
7.25417 16.625 35.4864
3.28102 15.263 54.2641
3.8531 11.1742 32.77
2.36056 7.37571 28.2514
3.10203 16.571 42.1899
2.38384 6.7324 29.5408
2.26344 7.44481 16.7387
0.953812 5.74584 33.2137
2.73268 10.2762 40.4597
2.8421 7.2033 26.4928
2.13988 8.34538 34.8391
2.58594 5.33658 10.7307
1.19843 7.98132 45.9708
4.15103 17.1885 41.8039
2.33966 6.1398 21.5899
1.42278 3.91708 23.9829
2.22025 7.86746 19.8233
1.66523 5.76037 15.9466
1.72893 15.6304 61.2893
3.46762 5.65928 29.1302
2.74789 9.55899 21.6903
1.47529 6.79592 24.4322
2.07364 9.49725 35.8432
2.77679 11.0527 29.9521
1.85577 7.73524 36.5357
2.62853 8.80456 38.2541
3.076 12.2013 46.6497
3.42432 10.5211 21.4665
1.67779 12.3479 43.5026
2.24566 6.19811 39.6275
2.85122 8.96521 37.9133
2.99796 11.7895 31.7373
1.83018 7.3582 43.3814
3.05748 7.00752 24.2283
1.93787 7.44074 34.189
2.96868 12.2028 32.7745
2.3272 10.4662 33.1822
2.02928 8.46873 47.4612
3.45968 9.52996 36.1309
2.8761 9.69863 26.3677
1.92052 6.62604 26.6031
2.41584 11.4796 25.6395
1.35706 4.55784 11.86
0.626952 4.19991 27.9684
1.91971 6.42221 30.0695
2.20937 6.65081 30.5412
2.43103 7.97129 20.4576
1.60512 8.11464 28.352
1.87417 5.17146 19.5147
1.3804 4.00051 19.2142
2.00435 11.9914 32.3673
2.07279 9.62451 40.0134
2.4818 6.55573 27.1912
1.84235 4.33539 23.6185
2.30904 11.1456 30.1934
1.99496 8.54511 35.4236
2.64796 11.2037 33.5592
2.0731 6.93883 30.1742
2.13704 6.40679 17.4666
1.32108 8.19532 26.5528
1.68526 8.18612 38.9304
2.73192 9.95104 38.0177
2.70965 10.0884 29.6928
1.82906 6.50156 40.6223
3.36233 16.5944 47.3964
2.74064 6.02808 29.5252
2.24879 8.33821 40.4355
2.94992 9.75775 48.9457
3.96185 13.632 30.6825
2.0743 10.9992 38.2816
2.16693 4.62031 31.0961
2.47299 11.0635 38.8359
2.5951 6.28563 31.0681
2.56773 11.3498 38.4393
2.6144 7.35627 11.774
0.781743 5.82115 22.9496
1.35392 5.7712 34.814
2.66854 8.80768 21.2834
1.23927 6.01107 30.6557
2.14869 6.66303 21.206
1.58397 7.91894 38.9797
2.83955 10.2829 21.6109
1.15944 6.98906 42.4542
2.78504 5.66164 28.2123
2.38671 11.4097 36.5663
2.38665 7.04258 31.1733
2.43884 10.2244 23.1219
1.33482 4.47241 23.3594
1.81805 8.59512 25.9212
1.4923 5.75936 31.0076
2.11416 6.85335 21.5512
1.66988 9.98984 32.2463
1.87913 8.08319 53.1
3.47888 7.63378 32.2939
2.61948 11.1827 36.44
2.61263 15.4256 85.2317
6.02049 17.1619 29.4312
1.89861 11.632 37.2384
2.03366 7.13236 37.2594
2.55222 10.6578 45.7583
2.99679 9.64053 24.3353
1.49622 6.37272 41.0635
2.85307 8.51286 32.0088
2.46247 9.64352 28.9318
1.99873 8.20415 26.59
1.61735 4.9454 25.0592
1.94484 9.58162 30.359
1.73647 4.13103 37.1299
3.1896 15.3725 37.2864
1.94646 4.97046 24.2208
1.81261 10.1904 34.0214
1.97625 4.6287 24.6523
1.83417 7.27397 26.8633
1.94609 11.7832 49.9404
3.21421 7.98357 33.4551
2.24571 6.62798 18.6444
1.33764 6.73677 18.9848
1.11119 3.53068 19.4159
1.48064 6.61158 29.5028
2.07401 8.79342 30.1943
1.91031 9.21545 34.2677
2.03066 4.4979 37.9509
2.93997 13.0173 36.8122
2.41226 7.46345 13.6678
0.982401 10.4976 43.7805
2.42584 4.77364 24.9683
1.75093 5.31741 24.9124
1.94931 10.6748 29.7239
1.79727 9.4119 46.9556
2.88806 6.17467 34.7215
2.44085 6.25758 15.7263
1.0587 5.16941 30.3074
2.14368 5.90533 23.6879
1.71697 6.54411 27.6032
1.95033 8.45652 22.572
1.37208 5.42074 25.0114
1.66438 6.50337 28.8776
2.03177 7.70387 18.848
1.26985 8.51066 38.3839
2.34863 7.10603 33.9098
2.35453 7.94426 34.8552
2.36585 6.41173 22.0109
1.59312 7.02049 19.8188
1.41064 8.13783 36.5306
2.41298 9.42211 36.2427
2.38323 10.5955 44.8553
2.96599 10.1216 40.7252
2.65137 10.8716 35.954
2.34718 9.39575 34.8374
2.35956 11.683 41.1265
2.47683 8.55336 43.9021
2.92694 10.7419 39.9562
2.60247 10.2828 34.8625
2.07504 6.99616 26.4166
1.64739 6.12766 45.4801
3.0998 12.0063 28.3537
1.73814 8.11218 34.1024
2.22254 7.1525 25.237
1.65376 6.17085 29.8786
1.95148 8.65124 19.1866
1.14008 5.54735 35.3087
2.31722 8.5734 33.0472
2.16803 6.61665 41.7049
2.86975 9.79815 25.9699
1.56435 5.15567 36.9853
2.51838 9.44923 23.1365
1.54224 6.25039 21.6761
1.28889 5.01436 32.4025
2.31133 8.89726 37.7178
2.56189 8.83733 30.2823
2.09059 8.20875 16.347
1.00276 6.96413 29.6413
1.66587 3.77641 25.8407
1.75626 7.75254 28.729
1.92211 6.98468 20.9334
1.41811 7.17057 28.9666
1.80797 8.23484 31.3434
1.92737 7.42135 34.8355
2.31714 7.42784 15.912
1.02022 7.94512 28.7652
1.81592 6.54713 21.6942
1.25262 3.57009 16.8223
1.07869 4.35667 48.0791
3.37782 10.1732 21.9304
1.45436 6.97114 33.2639
2.29045 11.2126 25.3087
1.41313 5.34966 35.1068
2.3131 10.1745 20.6423
1.17303 3.6476 26.5442
1.7499 8.68936 21.4224
1.31451 7.03833 40.7292
2.54393 11.2229 76.6868
4.89228 11.0175 24.8276
1.66379 5.56657 30.7181
2.1918 11.2407 30.5845
1.81601 5.64717 18.2444
1.23085 8.86727 35.6412
2.26104 7.19697 31.5923
2.02407 6.42168 21.4488
1.41024 8.07871 38.401
2.49068 7.85077 30.6874
2.15916 12.3464 29.468
1.64516 5.4647 37.2827
2.39467 7.40541 38.7412
2.60137 11.2403 22.4036
1.34992 5.54164 26.4737
1.71011 10.8493 39.5228
2.35346 6.52079 30.5377
1.98372 8.66123 52.5641
3.54084 14.0241 27.4805
1.49631 4.73293 47.7009
3.1957 13.474 25.5111
1.53058 5.09969 21.6819
1.53169 15.2285 47.2852
2.77762 3.63926 30.802
2.15499 10.4135 26.1699
1.56625 8.12585 29.9135
1.74907 5.86793 36.4355
2.36939 8.1469 38.2856
2.40008 7.28866 23.4535
1.60977 7.1764 27.6057
1.75528 11.1569 37.1916
2.16435 4.24169 21.2519
1.39784 6.36434 23.6573
1.49997 6.83084 46.881
2.82954 6.15096 17.6662
1.15881 9.89852 49.1933
3.18307 10.1208 42.7737
2.71363 13.7066 41.1096
2.55745 7.54603 24.9053
1.57251 3.09148 22.8268
1.59925 10.104 38.7512
2.51947 9.04842 29.7364
1.78024 6.48641 29.0936
1.95457 8.9244 24.9149
1.57381 5.18974 29.8899
1.84826 5.99313 20.2591
1.31347 4.40939 29.6243
1.90788 6.72057 14.2328
0.929724 7.50668 29.3664
1.76635 5.15805 46.1862
3.03148 9.06872 19.0376
1.20579 7.19784 29.5546
1.85351 11.1708 43.4206
2.78518 6.63267 24.1282
1.53524 6.75884 39.4226
2.50854 10.5981 28.551
1.7776 11.3705 29.8159
1.76898 3.97407 32.2225
2.08402 6.8974 33.6214
2.14142 10.1139 17.7694
1.04949 3.43023 38.5729
2.45297 9.42317 20.7708
1.36834 9.67372 34.8844
2.1035 6.8006 39.2127
2.45663 11.3293 29.2884
1.83796 4.72157 21.5944
1.36978 7.12275 37.7931
2.36348 10.0186 45.2993
2.80127 8.81478 34.5774
2.21235 9.5923 31.3965
1.95386 8.81807 24.6884
1.51218 6.72601 28.0221
1.79807 5.38605 16.1126
1.00323 5.24976 23.724
1.4148 5.30152 10.9451
0.64593 6.43633 45.2647
2.82068 7.62453 38.406
2.45526 6.2489 28.6977
1.79807 7.25366 34.057
2.24399 15.7553 39.623
2.47701 5.54532 33.6452
2.19258 15.0721 52.4519
3.22383 8.6827 21.1264
1.32189 8.07867 65.5927
4.02202 5.2551 24.6678
1.4837 8.1829 35.4306
2.19443 6.54684 35.8795
2.17945 10.9758 49.566
3.11345 11.1247 25.9067
1.63251 4.84307 25.8133
1.66333 6.72072 16.3717
1.06296 5.56427 20.2055
1.22891 9.05654 28.6459
1.80307 9.8023 38.9103
2.42027 9.0017 40.2017
2.50546 9.50671 21.0619
1.36261 10.9533 82.1303
5.19478 0 0