# pn-170911/RbIIR-59-USN3-1280-1959.psd
# Power spectrum* (dif=0,1,2) (really just |FT|^2)
# NOTE: only the first half! (symmetric)
# weeks: 1280-1959
# 3541 clock-days, 51 excluded
# PSD: 1441
322.742 0.0623982 0.0211614
12219.8 0.283917 0.0111335
40240.6 0.769806 0.0117284
13814.2 0.553681 0.0112245
32793.7 2.49932 0.0118354
5153.45 0.547154 0.0112001
4252.98 0.658933 0.0115239
2731.82 0.560817 0.0114703
3464.36 0.97985 0.0119422
1681.01 0.56719 0.0116314
1588.4 0.674424 0.0116429
1138.04 0.573738 0.0117382
1098.44 0.67238 0.012656
868.118 0.615811 0.0121619
827.386 0.692549 0.0122985
681.212 0.647539 0.0122675
705.692 0.777634 0.0122479
560.642 0.695367 0.0121835
545.828 0.772847 0.0126546
482.374 0.730916 0.012772
449.727 0.787928 0.0131816
408.375 0.780615 0.0135714
404.474 0.854002 0.0133182
369.269 0.844315 0.0137831
362.012 0.903787 0.0143619
337.927 0.920044 0.014319
333.779 0.993059 0.0140962
318.01 1.01428 0.0150434
298.29 1.03424 0.0153513
283.978 1.06477 0.0160711
292.694 1.15768 0.0166562
269.533 1.14443 0.0171288
274.936 1.26326 0.0175985
249.545 1.20653 0.018053
257.079 1.31733 0.0192414
252.914 1.39361 0.020426
250.135 1.47115 0.0210463
248.129 1.53116 0.0219328
235.702 1.53799 0.0229703
239.856 1.66352 0.0229094
231.648 1.68085 0.024573
214.795 1.62097 0.0249815
225.606 1.80515 0.0266373
227.836 1.89887 0.0291094
227.971 2.03737 0.0313682
225.701 2.07753 0.0323689
203.787 1.97659 0.0319449
207.212 2.0667 0.0334536
227.961 2.42988 0.0385035
210.765 2.32406 0.0388179
213.508 2.45767 0.041017
214.941 2.57607 0.0444391
212.731 2.62994 0.0456069
203.48 2.62778 0.0486348
213.768 2.89055 0.0526982
196.216 2.72094 0.0515062
208.112 3.04417 0.0563238
188.546 2.82271 0.0558748
215.166 3.34144 0.0657935
208.656 3.40028 0.0684076
194.899 3.23488 0.0666746
196.179 3.39366 0.0736307
213.476 3.83448 0.0830677
192.47 3.53665 0.0790699
201.179 3.84564 0.0870156
200.533 3.95052 0.0925726
199.503 4.03707 0.0951116
201.386 4.21963 0.103486
177.003 3.81436 0.0963403
190.634 4.23022 0.10684
189.064 4.32504 0.111931
195.557 4.61156 0.123704
190.724 4.62278 0.125813
182.282 4.54596 0.126741
187.671 4.81683 0.139321
175.054 4.59625 0.136202
187.113 5.0611 0.152528
174.561 4.81069 0.147661
186.757 5.29 0.168157
200.181 5.91703 0.187511
183.381 5.44513 0.17777
179.562 5.48442 0.185095
187.856 5.93935 0.201333
165.64 5.33178 0.187173
171.905 5.69077 0.204441
181.705 6.18208 0.227314
174.462 6.03593 0.224608
177.807 6.32718 0.240329
178.141 6.43032 0.247629
175.068 6.52286 0.255858
173.999 6.64498 0.268556
180.34 7.05029 0.28855
157.66 6.25046 0.265373
160.256 6.39917 0.271668
161.84 6.72137 0.295241
179.874 7.64431 0.341571
261.982 11.5371 0.519368
159.42 6.9449 0.321424
153.524 6.90444 0.324794
151.942 6.94795 0.333426
148.401 6.97506 0.344106
164.697 7.91459 0.395984
173.352 8.5732 0.438065
163.061 8.08409 0.417955
161.074 8.27289 0.440125
168.101 8.64914 0.463239
155.314 8.16835 0.448009
147.155 7.87221 0.44115
153.571 8.39569 0.474922
157.829 8.87668 0.513692
153.483 8.69811 0.510554
144.497 8.37242 0.503216
152.803 9.01261 0.549966
168.26 10.2034 0.633771
170.625 10.4136 0.653672
155.819 9.58359 0.613483
149.811 9.42397 0.610478
137.283 8.79619 0.586691
147.53 9.75037 0.65658
149.021 9.91383 0.680066
155.923 10.6006 0.745154
152.353 10.4226 0.732749
129.158 8.95072 0.638281
144.987 10.3343 0.756005
142.213 10.1737 0.749038
145.586 10.6729 0.805034
140.643 10.4853 0.803928
144.478 10.8857 0.845079
144.921 11.1309 0.877374
136.602 10.6815 0.859734
139.736 11.0321 0.894459
137.884 11.2037 0.931152
146.389 12.0356 1.01043
142.626 11.7809 0.996609
136.12 11.4185 0.982161
135.523 11.5566 1.0114
136.863 11.7746 1.04551
136.395 12.015 1.077
132.457 11.8422 1.08575
124.154 11.1786 1.03012
134.773 12.4839 1.1749
131.433 12.3364 1.17549
129.019 12.001 1.14934
139.259 13.4954 1.32857
132.327 12.7956 1.26392
121.233 11.9599 1.20425
126.903 12.6903 1.29112
130.433 13.2586 1.37491
118.021 11.9937 1.25692
125.101 13.0722 1.38003
130.785 13.9266 1.50494
129.703 13.7597 1.48384
122.6 13.2679 1.45636
121.192 13.2008 1.47471
120.767 13.4609 1.52986
121.337 13.6763 1.56952
120.233 13.5802 1.5502
116.786 13.5126 1.58062
121.14 14.2994 1.71274
122.934 14.4693 1.72249
114.787 13.7477 1.6723
113.872 13.7792 1.68484
114.809 14.1373 1.76305
119.155 14.9741 1.90692
116.11 14.529 1.85342
111.073 14.0966 1.81451
116.377 15.0771 1.97348
114.508 14.9357 1.96868
112.847 14.8627 1.98808
110.205 14.6827 1.99012
107.552 14.5738 1.99357
109.041 14.9342 2.07713
110.27 15.1061 2.08978
104.826 14.6947 2.08984
101.477 14.33 2.05076
106.521 15.4023 2.25016
104.951 15.0556 2.1918
103.064 15.1279 2.25923
106.954 15.7308 2.34476
102.833 15.3499 2.32032
98.8938 14.9032 2.27377
104.682 16.1866 2.54016
106.437 16.22 2.50747
104.147 16.6789 2.70469
104.764 16.3259 2.58291
101.39 16.2779 2.64918
101.124 16.1103 2.60424
96.4835 15.9065 2.65316
102.911 16.8167 2.78708
91.4299 15.1224 2.54018
94.1157 15.8802 2.70555
100.494 17.3914 3.05882
144.395 24.7205 4.2177
93.3316 16.0539 2.79183
94.1431 16.6285 2.97177
94.2551 16.6671 2.99325
98.2287 17.5552 3.1788
90.9333 16.2137 2.92098
89.3387 16.4786 3.06763
90.8967 16.8333 3.15606
91.2091 16.9919 3.21681
90.2357 16.9861 3.25482
91.4473 17.2856 3.32221
90.3818 17.272 3.34353
90.4799 17.3732 3.36621
86.0171 16.9629 3.37124
86.3682 16.9608 3.35967
86.7457 17.6148 3.58726
89.199 17.9919 3.69667
92.3932 18.7274 3.83389
87.1708 17.6767 3.61959
85.12 17.6328 3.68819
86.2388 18.0723 3.81132
86.9079 18.318 3.898
84.6382 17.9989 3.86418
80.6552 17.3091 3.75916
85.4235 18.7196 4.12969
83.3293 18.0581 3.96428
82.3239 18.1532 4.04325
79.0098 17.4646 3.91187
78.7933 17.7492 4.03813
78.1027 17.7023 4.05616
80.4308 18.3626 4.24294
80.3009 18.4271 4.28026
80.7072 18.6045 4.3348
75.7152 17.6865 4.17597
77.2969 18.4662 4.44947
77.7086 18.4125 4.42385
77.6896 18.9688 4.6655
80.1552 19.3643 4.72078
77.3055 18.7112 4.5512
71.5745 17.6818 4.41258
73.7107 18.3722 4.63504
75.5033 19.2014 4.9186
76.1242 19.1392 4.84615
74.0762 19.0056 4.93493
73.7447 18.8457 4.85443
69.3319 18.0156 4.72848
71.3598 18.7541 4.96835
72.3157 19.3004 5.22912
76.3165 20.0413 5.29804
68.838 18.3236 4.91594
67.3563 18.2803 5.03611
67.8207 18.5197 5.09436
67.7423 18.8128 5.2832
74.0073 20.5148 5.72677
69.659 19.2191 5.38928
69.1167 19.4491 5.51538
70.5991 19.9613 5.69256
66.0189 18.7528 5.39557
68.0532 19.7704 5.78429
66.5805 19.3425 5.66992
65.6417 19.0526 5.60061
66.3421 19.4678 5.78225
66.6476 19.7582 5.88382
65.5239 19.7419 5.99585
65.2499 19.7033 5.97234
64.4507 19.7799 6.08335
64.905 19.8659 6.12452
64.5717 20.0304 6.24832
61.4862 19.1097 6.00236
62.6132 19.5796 6.15918
60.7852 19.3836 6.23416
62.773 20.1907 6.55529
65.3694 20.7582 6.66328
60.6474 19.4571 6.33334
60.4142 19.51 6.36454
58.67 19.3666 6.42257
60.0426 19.7957 6.59084
59.1259 19.7098 6.62857
61.1372 20.3829 6.83993
59.7345 20.2939 6.9419
59.3893 20.1165 6.9041
57.681 19.6086 6.7311
59.7644 20.6455 7.1673
56.4424 19.6079 6.86498
59.4082 20.8787 7.36405
57.5339 20.1783 7.10966
56.5361 19.9298 7.07132
53.8013 19.4249 7.08911
57.6227 20.6098 7.44081
55.5124 20.2306 7.42388
56.6623 20.4354 7.42527
55.6313 20.4459 7.53582
52.9284 19.5495 7.29511
54.6519 20.2597 7.56183
51.7229 19.621 7.53242
54.8583 21.0278 8.26843
85.3732 31.6351 11.5631
53.082 20.352 7.86319
51.3178 19.8371 7.70897
50.5439 19.7882 7.79932
50.9192 19.9198 7.87432
53.21 20.8403 8.22885
52.1633 20.5624 8.16317
50.2989 20.0371 8.06392
50.5175 20.3632 8.29719
52.3373 20.9135 8.43053
52.4183 21.0494 8.46918
48.2417 19.8282 8.20591
50.81 20.7918 8.5231
48.8624 20.3544 8.54564
50.017 20.6698 8.63939
48.4561 20.2271 8.4843
48.2559 20.3692 8.66251
47.5868 20.1185 8.59417
50.0026 21.422 9.19493
46.6089 20.0692 8.73817
48.3774 20.9082 9.10221
48.0409 20.9281 9.21157
48.1407 21.1159 9.28014
46.6283 20.6377 9.23156
47.5879 20.8894 9.23223
46.6466 20.8039 9.32663
45.1736 20.4288 9.32929
46.5529 20.8426 9.43684
46.9148 21.212 9.6534
44.6753 20.426 9.45223
45.8789 21.0084 9.72125
45.3419 21.0106 9.77753
45.1962 20.9404 9.78696
45.978 21.4791 10.0604
42.7947 20.092 9.50879
43.9057 20.952 10.0345
44.4846 21.3517 10.2987
45.062 21.5081 10.3623
43.0386 20.6638 9.99373
42.2835 20.6433 10.1614
43.2742 21.064 10.3389
44.0386 21.6885 10.6972
41.5907 20.4419 10.1444
42.642 21.046 10.4592
41.0166 20.4125 10.2463
41.9919 21.2562 10.7774
40.7659 20.4889 10.3937
39.4471 20.1449 10.4006
42.3846 21.4678 10.8907
41.4685 21.3911 11.0499
39.218 20.428 10.6835
40.1688 20.8181 10.8702
39.787 20.7841 10.9234
39.6717 20.9479 11.1688
40.4221 21.141 11.1848
39.4483 20.909 11.1793
39.312 21.0144 11.3452
39.608 21.1892 11.343
37.9128 20.6812 11.3463
38.6034 20.9323 11.4647
38.4177 21.0651 11.6591
39.0168 21.2978 11.7413
39.041 21.379 11.7593
36.8547 20.443 11.3985
37.1201 20.8987 11.8501
38.5915 21.5554 12.1372
38.2036 21.5892 12.272
37.3857 21.3155 12.2349
36.8218 20.9511 12.0392
36.2766 20.9232 12.1675
35.6435 20.282 11.7054
35.8467 20.8386 12.2014
37.2766 21.649 12.6049
35.6998 20.9773 12.4114
34.4305 20.1564 11.9062
35.7737 21.2959 12.7104
34.1349 20.1763 12.0844
34.2783 20.59 12.5011
35.1432 20.9506 12.613
35.1862 21.3304 12.9778
35.7422 21.7541 13.3043
34.8748 21.269 13.1013
34.4319 21.2444 13.211
33.9698 20.8917 12.9853
33.9272 20.8159 12.9297
34.6235 21.5854 13.4559
33.3882 20.8321 13.1288
34.1225 21.429 13.5256
33.8944 21.5637 13.8334
34.2705 21.6683 13.7459
32.2836 20.7411 13.3877
32.1763 20.5205 13.1881
33.484 21.9184 14.38
31.7514 20.4713 13.4291
31.8264 20.7529 13.6986
31.9274 21.1572 14.5769
51.708 33.3252 20.6992
31.2893 20.818 14.0084
31.5087 21.2366 14.366
31.2222 20.7836 13.9557
31.8347 21.2353 14.2309
31.0038 21.1282 14.4778
30.6413 20.5156 13.9152
31.4251 21.535 14.7864
30.5081 20.8753 14.3727
31.1806 21.3362 14.7056
30.7112 21.455 15.0017
30.6885 21.3653 14.9854
29.5195 20.486 14.4441
29.6461 20.6816 14.5805
29.5568 20.6349 14.6048
30.4221 21.4656 15.1804
30.1349 21.4767 15.3446
29.7928 21.4839 15.5517
29.5207 21.2667 15.4891
29.1678 20.8237 15.055
29.2184 21.0551 15.3022
28.9189 21.1366 15.6024
29.7088 21.5427 15.6931
28.5069 21.0044 15.5535
28.6312 21.1583 15.7068
27.5344 20.4817 15.3866
28.7046 21.3042 15.8794
28.2867 21.1076 15.8713
27.9733 20.9196 15.7549
27.5823 20.8467 15.9087
28.0804 21.1684 16.0558
27.1109 20.7759 16.1058
27.7973 20.9489 15.9706
28.8432 22.2608 17.1365
27.617 21.2015 16.4631
27.6398 21.4168 16.6626
26.0885 20.2019 15.8135
27.8954 22.2001 17.6672
27.3981 21.4293 17.0316
27.3614 21.1972 16.6105
26.9949 21.1756 16.6932
26.4281 21.2083 17.0381
26.1556 21.1287 17.225
26.6705 21.1638 16.9181
25.3625 20.4569 16.6757
26.6552 21.4147 17.2358
25.5532 20.8767 17.204
26.117 21.2332 17.3645
25.8107 21.2471 17.5262
24.939 20.523 17.081
25.8556 21.4831 17.9596
25.3828 20.9904 17.6458
26.1488 21.7546 18.186
25.8006 21.4386 17.999
25.4801 21.265 17.8113
24.5492 20.7004 17.592
25.2181 21.4833 18.3143
23.9822 20.5658 17.7918
24.2056 20.6064 17.7257
24.5878 21.0783 18.1096
24.4904 21.2779 18.4896
24.2277 20.9522 18.3212
24.0509 20.8302 18.2057
24.51 21.4308 18.8453
23.7922 20.6753 18.2186
24.5412 21.6817 19.2418
23.5275 20.5262 18.1613
23.9011 21.2059 18.858
23.1819 20.5556 18.4008
23.699 21.3915 19.3385
23.7843 21.3716 19.2787
23.606 21.4802 19.6507
23.2834 21.0584 19.2175
23.5043 21.2299 19.2682
23.2117 21.2536 19.4843
22.3558 20.54 19.0556
22.5272 20.5875 18.9837
21.9811 20.5078 19.3464
23.2245 21.5207 20.0443
23.0369 21.3311 19.8703
22.6682 21.0628 19.7003
21.7688 20.5357 19.5005
21.4731 20.3462 19.4932
22.2903 21.1896 20.2958
22.8709 21.4464 20.2078
21.8653 20.8812 20.0915
21.6716 20.6781 19.8799
21.2471 20.6835 20.4114
21.9595 20.904 20.1909
21.7551 20.9896 20.4404
21.5675 20.6134 19.9466
21.7349 21.259 20.8196
21.874 21.5391 21.2478
21.3185 20.8077 20.4838
20.5962 20.6449 20.8677
20.5985 20.8452 22.536
33.7348 32.5086 29.7336
21.0139 20.8897 20.9757
20.8227 21.1633 21.5982
20.3711 20.4279 20.7857
21.0534 21.2091 21.4621
19.9113 20.1851 20.7625
20.6689 20.8949 21.2071
20.085 20.6932 21.4655
20.095 20.4688 21.0645
19.7423 20.3698 21.1774
20.0486 20.7317 21.7131
20.7219 21.4516 22.2502
19.719 20.5459 21.6854
19.9143 20.4658 21.3015
19.8002 20.7039 21.6979
19.3211 20.2349 21.4969
19.6232 20.6087 21.8222
19.7266 20.8405 22.094
19.4761 20.5885 21.7901
19.2497 20.6042 22.1455
19.215 20.5074 21.8983
18.8732 20.5274 22.452
19.4824 20.9787 22.7031
19.0614 20.6628 22.5821
19.1133 20.7307 22.7857
19.4286 21.0299 22.9083
18.9957 20.699 22.6214
18.7496 20.5022 22.4839
18.5074 20.7361 23.3937
18.8514 20.5572 22.6508
17.8493 19.8733 22.2932
18.2186 20.2562 22.6504
18.1476 20.366 23.0689
18.89 20.9469 23.2278
18.3315 20.9108 23.7824
18.001 20.0824 22.6434
17.7105 20.2596 23.2408
17.9398 20.5007 23.6421
18.1377 20.6901 23.7215
18.254 20.922 24.2221
18.1075 20.7552 23.9245
17.6864 20.3693 23.78
17.9456 20.5324 23.682
17.4336 20.3341 23.8151
17.3851 20.2155 23.7029
17.6476 20.6843 24.2617
17.4293 20.352 24.0358
17.5739 20.7106 24.4749
17.1356 20.3512 24.4804
17.3465 20.1725 23.6733
16.8278 20.557 25.2534
17.7373 20.5065 23.978
16.5167 19.7858 23.7492
16.5696 20.0914 24.4842
17.0745 20.9579 25.9078
17.4771 20.719 24.9641
16.9931 20.5289 24.9671
16.9443 20.246 24.3803
16.818 20.6617 25.3455
16.6483 20.3133 25.0065
16.9769 21.1646 26.3122
16.5369 20.4552 25.6932
16.7584 20.249 24.9206
16.0909 19.9011 24.8768
16.5752 20.8349 26.2668
16.5753 20.4213 25.5029
16.3977 20.2564 25.1246
15.8179 19.8343 25.0694
16.2012 20.3878 25.4327
15.8169 20.4131 26.2048
15.9667 20.5642 26.7043
16.0779 20.2669 26.0648
15.8722 19.9817 25.5961
16.2582 20.8874 26.7044
15.4015 19.5696 25.1557
15.3863 19.9695 26.1019
15.3432 19.624 25.4887
15.8873 20.6099 26.6238
15.2947 20.0695 26.5865
15.435 19.9739 26.2342
15.3808 19.9031 26.039
15.5318 20.4275 26.9513
15.2164 19.8858 26.2881
15.1863 20.1719 26.8872
15.1895 19.9743 26.492
14.9682 19.9321 26.8056
15.3526 20.39 27.2316
15.0508 20.1487 27.242
15.1142 20.1499 26.9738
15.024 20.3302 27.4634
14.6275 20.0084 27.7305
15.5638 21.0352 28.5593
15.0135 20.2913 27.6199
14.5803 19.7997 27.3337
14.913 20.6127 28.6147
14.2523 20.2491 31.4142
22.7962 29.8416 36.5451
14.6289 20.3692 28.635
14.4772 19.7307 27.1149
14.0473 19.6702 27.7334
14.28 19.8361 27.8339
14.3482 19.9352 28.0845
14.3893 19.9491 27.6684
14.2811 20.3314 28.7703
13.935 19.4557 27.33
13.737 19.8836 28.9679
14.3885 20.0353 28.1812
13.6613 19.3187 27.711
13.783 19.558 28.0847
13.7509 19.5735 28.1049
13.7557 19.6451 27.9785
13.0766 18.9611 27.8167
13.4767 19.4095 28.2956
13.8539 20.0829 29.1034
13.441 19.3796 28.4691
13.4582 19.3064 28.2842
14.0352 20.3619 29.3345
13.1877 19.313 28.5537
13.4965 19.8642 29.3083
13.3397 19.6165 29.3756
13.5721 19.6663 28.7747
13.1665 19.5797 29.3144
13.4237 19.8917 29.6122
13.2723 19.6735 29.4773
13.328 19.7931 29.4002
12.9538 19.7593 30.3574
13.1901 19.2245 28.6746
12.7625 19.0986 28.8143
12.865 19.3817 29.3434
13.072 19.9572 30.7619
13.2778 19.7928 29.897
12.895 19.5221 29.6923
12.588 18.9532 28.7805
12.4398 19.3252 30.2154
12.8299 19.4605 29.9698
12.9252 19.94 30.7296
12.4941 19.15 29.6028
12.5054 19.4292 30.1574
12.3156 19.2497 30.4911
12.6581 19.5439 30.6332
12.6018 19.3608 29.8409
12.088 18.8684 29.5552
11.8874 18.6977 29.8291
12.2998 19.6551 31.7978
12.7433 19.6281 30.6789
12.2132 18.9644 29.8325
12.0925 19.3825 30.9042
12.1486 19.0456 30.0976
12.0272 19.3402 31.2055
12.2586 19.6292 31.7531
12.1599 19.2025 30.4587
11.5323 18.4902 30.037
11.7556 18.8525 30.2889
11.4594 18.5217 30.1791
11.7105 19.0637 31.1335
11.6479 18.8499 30.7084
11.342 18.4674 30.5895
11.6182 18.7281 30.637
11.8718 19.3642 31.1691
11.1651 18.5143 30.9719
11.3887 18.6804 31.1879
12.031 19.7889 32.1119
11.1426 18.2568 30.2604
11.1506 18.6589 31.1179
11.0416 18.3482 30.8312
10.937 18.0317 30.0345
11.0337 18.9529 32.6575
11.3777 18.739 31.4069
10.9249 17.9968 30.2253
10.8885 18.5791 32.1014
11.4688 19.1909 32.2295
11.0985 18.6164 31.5485
10.8395 18.4711 31.9663
10.9489 18.1583 30.4895
10.7929 18.6323 32.1784
10.7074 18.078 31.393
11.0498 18.7127 31.6767
10.5335 18.1829 31.9218
11.0073 18.7041 31.768
10.6125 18.2235 31.3183
10.2994 17.8125 30.9603
10.4371 18.4321 32.7144
10.5933 18.0486 31.2525
10.1394 17.5429 31.1067
10.6097 18.4293 31.9366
10.3488 18.0471 31.6611
10.1935 18.0217 32.0472
10.3203 18.1381 31.7539
9.88785 17.5293 31.6438
10.1475 17.9509 32.2812
10.2681 18.1063 32.7084
10.2531 19.0757 39.3923
16.4721 27.5377 41.8381
10.3028 18.6937 33.5546
9.71645 17.4854 32.0033
10.0169 17.8405 32.1657
9.98694 17.9856 32.709
9.99279 17.8486 32.1491
10.1454 18.3968 33.006
9.60184 17.677 33.1494
10.1921 18.3668 33.4233
10.022 18.098 33.2228
9.96667 18.2366 33.8982
9.94434 17.6236 32.128
9.82308 17.6334 31.8689
9.83914 18.2093 32.9749
9.63656 18.0673 33.5044
9.40446 17.2661 32.2838
9.49099 17.5076 32.6099
9.46958 17.6019 32.8931
9.46728 17.4412 32.3745
9.20901 17.3684 33.1549
9.41418 17.3109 32.8832
9.83258 18.099 33.1523
9.15496 17.3086 32.7711
9.20627 17.4057 33.6163
9.61519 17.5431 32.0851
8.9086 17.1965 32.9898
8.94775 16.7363 31.983
9.3112 18.0383 34.5736
9.08467 16.9099 32.3431
9.01685 17.2536 33.2132
8.92743 16.9613 33.0616
9.12355 17.2335 33.2158
9.26417 17.5764 33.2691
9.23547 17.8519 33.95
8.94151 17.3832 33.9056
9.00731 17.2259 33.1582
8.88482 17.4251 33.8122
8.64665 16.6011 32.5892
8.72299 16.8288 32.7173
8.66117 16.9794 33.3322
8.49109 16.4016 32.3256
8.64234 17.0415 33.6586
8.72102 17.219 33.8961
8.5151 16.692 33.4168
8.76241 17.0692 33.4559
8.46786 16.9155 34.0505
8.48362 16.4349 32.8464
8.48916 17.0112 35.2538
9.67441 18.5603 34.4145
8.1849 16.6833 33.8615
8.32628 16.7289 34.0273
8.56805 17.0126 34.0119
8.34303 16.6649 33.5524
8.38291 16.951 34.6459
8.62422 17.111 34.2529
8.3162 16.7126 33.506
8.2341 16.8581 34.511
8.16469 16.3069 32.8336
7.97944 16.6043 34.7439
8.343 16.8557 34.3392
7.95765 16.1203 33.6656
8.17795 16.6245 34.2284
8.22324 16.8272 34.3658
7.90309 16.0942 33.4943
8.00731 16.5735 34.883
8.21051 16.6244 34.0442
8.07087 16.5626 34.1442
7.87797 16.3118 33.9364
8.04244 16.8349 35.0207
7.86059 16.4025 34.7877
7.78983 15.7879 33.334
7.92975 16.3578 33.9509
7.80304 16.1402 33.3161
7.53395 15.9597 34.0209
7.6566 15.9122 33.502
7.66083 16.1394 33.737
7.58264 16.2893 34.7294
7.64545 16.2416 35.2255
7.95795 16.6929 35.2246
7.72158 16.2568 34.615
7.52457 15.8451 34.0373
7.83805 16.7439 35.1438
7.45691 15.8623 33.8316
7.2496 15.5163 33.5573
7.23881 15.6226 33.9206
7.42491 16.0237 34.9723
7.52363 16.1606 35.3941
7.62503 16.2468 34.646
7.27943 15.7744 34.3528
7.25847 15.7009 34.1354
7.10531 15.3651 34.0393
7.29223 15.8572 34.5752
7.297 15.958 35.0264
7.22585 15.6962 34.7675
7.2186 15.9266 35.1691
7.02015 16.689 44.8501
11.4512 23.2953 43.1462
7.24514 15.6732 34.6704
6.99339 15.1885 33.628
7.12331 15.8529 34.9735
7.02548 15.6079 34.7469
7.10043 15.9497 35.7614
6.99876 15.3188 34.2994
6.97734 15.548 35.0856
6.95636 15.387 34.7943
6.98383 15.5072 35.0122
7.02665 15.53 34.7914
6.9674 15.5554 34.8048
6.82951 15.3358 34.9726
6.95264 15.4978 35.0072
6.91617 15.4274 34.3101
6.6711 15.1835 34.801
6.84405 15.4891 35.5587
6.91614 15.347 34.2089
6.62213 15.1706 34.8261
6.78684 15.4774 35.1527
6.55254 14.695 33.6532
6.63163 15.3909 35.2981
6.68538 15.3684 34.8975
6.40135 14.7304 34.6939
6.65831 15.2376 34.9181
6.34483 14.4065 33.887
6.56923 15.182 34.8573
6.42662 14.8567 35.1671
6.66955 15.253 35.1432
6.51857 14.9623 34.6682
6.60363 15.4094 34.9133
6.20261 14.9322 35.8788
6.36379 14.5321 34.4362
6.50999 15.2634 35.4605
6.19489 14.4734 34.4375
6.27616 14.5436 34.0865
6.20001 14.7863 35.5299
6.42641 15.0085 35.6961
6.34575 14.5301 34.3677
6.37438 14.9058 34.3301
6.02763 14.559 35.3584
6.24762 14.8292 35.3429
6.0555 14.2308 34.4962
6.17985 14.5811 34.6477
6.19186 14.7951 35.2275
6.08842 14.7115 35.68
6.13946 14.5966 35.6878
6.19687 14.4517 34.5904
6.05562 14.4615 34.8598
6.098 14.7822 35.7418
6.00728 14.2128 34.4023
6.02557 14.5422 34.8964
5.83468 14.032 34.0892
5.8165 14.0996 34.9406
6.08436 14.7531 35.4317
5.84918 14.2716 35.4541
5.89107 14.2327 35.3568
5.99959 14.3153 34.8141
5.84298 14.0348 34.3121
5.8147 14.2553 35.0036
5.83332 14.2745 34.9602
5.76999 14.1172 34.8521
5.69799 14.0729 35.159
5.77193 14.1471 35.6589
5.88961 14.1206 34.2426
5.64607 14.0871 34.6698
5.5621 13.7995 35.0412
5.84654 14.6882 36.7388
5.78904 14.0466 35.0352
5.61656 13.6675 33.8786
5.57251 14.1458 35.8657
5.74168 14.1276 34.6694
5.40938 13.6051 34.9618
5.61012 13.7778 34.3795
5.45087 13.7391 34.9814
5.63197 14.2143 35.8128
5.56649 13.8286 34.9458
5.44558 13.7699 35.1941
5.50483 13.951 35.6368
5.51296 13.7281 35.1474
5.54701 14.0122 35.6224
5.43644 13.6794 35.3334
5.61288 14.2338 36.0952
5.52721 13.8628 35.0632
5.36533 13.7192 34.7327
5.22032 13.504 35.5163
5.40766 13.709 35.6844
5.41065 13.7555 35.6257
5.43585 13.766 34.9732
5.27092 13.8101 36.7081
5.47189 13.5721 34.9768
5.42709 14.1858 36.4032
5.2431 13.2802 34.6639
5.35363 14.438 38.2063
5.49372 14.1853 38.0551
5.61587 15.4412 48.6571
8.43512 20.0061 42.4714
5.43683 14.2397 36.9357
5.32377 13.9797 37.0316
5.48504 14.1771 36.149
5.2148 13.97 36.6902
5.1065 13.2348 35.4299
5.23226 13.6976 35.9393
5.22 13.5504 35.1077
5.00742 13.2592 35.185
5.00425 13.471 36.1981
5.10047 13.4307 36.2168
5.11335 13.3775 36.0828
5.14162 13.1319 34.3936
5.03143 13.4984 35.4381
4.94979 13.1904 34.956
4.77971 13.0262 36.1328
4.98701 12.8855 34.6065
4.90307 13.067 35.1203
4.9256 13.1245 35.5223
5.01366 13.3537 36.096
4.96934 13.0089 34.481
4.83587 13.1509 35.5516
4.86137 13.1037 36.1314
4.99014 13.2076 35.8637
4.96538 13.1831 35.1514
4.83332 12.8956 34.85
4.76023 12.8824 34.7093
4.74481 13.1394 36.0197
4.79989 12.879 35.5034
4.83407 12.9322 34.7554
4.65691 12.8682 36.1741
4.86017 13.0052 35.2236
4.7159 12.9876 35.955
4.82533 13.0432 35.7732
4.82371 13.0718 35.3858
4.64498 12.7842 35.6739
4.69851 12.8825 35.6876
4.72967 12.853 35.0941
4.51195 12.2092 34.1214
4.637 12.9802 36.0855
4.74969 13.063 35.6971
4.55871 12.6031 35.7663
4.64791 12.7332 35.267
4.59155 12.8246 35.9586
4.56439 12.4167 34.6803
4.46332 12.4813 35.5254
4.61544 12.7857 36.1088
4.59738 12.4673 34.4094
4.40954 12.336 34.7866
4.47711 12.6064 36.0806
4.65393 12.8924 35.6264
4.49687 12.5624 35.0629
4.34269 12.1693 34.5152
4.41964 12.6226 35.9448
4.44321 12.4357 35.6467
4.45397 12.3082 34.341
4.28479 12.1598 35.0821
4.41229 12.4242 35.2347
4.32067 12.1224 34.9823
4.39067 12.3445 35.7795
4.53775 12.6635 34.7409
4.2077 12.1473 35.3261
4.30801 12.1531 35.2988
4.3952 12.4739 35.7629
4.41041 12.5709 35.8121
4.34371 12.3479 35.6735
4.33641 12.34 35.6104
4.29528 12.0622 34.8898
4.29089 12.0724 34.2507
4.18258 12.2975 35.7515
4.29325 12.2209 34.8476
4.17351 12.24 35.1392
4.0535 11.5791 34.3709
4.16072 12.2077 36.292
4.29802 12.1904 35.4387
4.22811 12.096 35.1377
4.15955 12.0404 34.8857
4.10647 12.0076 35.5842
4.17236 12.0633 35.5339
4.18641 12.1024 35.1902
4.10509 11.9547 35.0078
4.04483 11.6755 34.4798
4.05126 11.9565 35.5124
4.12799 12.0331 35.4232
4.07541 11.9596 35.7383
4.0824 11.7495 34.6395
4.04699 11.98 35.7966
4.10151 11.9991 36.1346
4.19101 12.3001 36.4145
4.14173 12.0581 35.9639
4.15334 12.3187 36.3211
4.08108 11.7623 34.753
3.98351 11.7911 34.8859
3.94199 11.8959 36.1771
4.08873 12.2872 36.5193
3.93495 12.7703 49.2027
6.29686 16.7151 39.9532
4.09271 12.2597 35.9334
3.9341 11.955 36.3266
4.01879 11.8183 35.2571
3.91854 11.7813 36.1125
4.01902 11.9332 36.2959
4.028 11.6246 34.3253
3.8405 11.5215 34.081
3.81481 11.8727 36.7587
4.03883 12.022 36.191
3.90787 11.5194 34.9062
3.84027 11.5834 35.3573
3.84059 11.4218 34.8184
3.81376 11.5534 34.9651
3.78561 11.4907 35.8449
3.89707 11.5734 35.9522
4.05335 12.0648 35.104
3.73247 11.5488 35.68
3.83173 11.5109 35.1342
3.85063 12.0101 36.8865
3.87711 11.6085 35.5803
3.80349 11.6246 36.0312
3.8369 11.5379 35.2573
3.70025 11.2234 35.0377
3.77772 11.696 36.5824
3.90903 11.8986 36.6788
3.84543 11.6539 36.0272
3.8432 11.7428 35.8446
3.76628 11.7505 36.2321
3.73279 11.4598 35.6186
3.72122 11.419 35.6989
3.75503 11.5368 36.0266
3.7631 11.5423 35.685
3.7306 11.6657 35.9374
3.59935 10.889 34.3561
3.62492 11.3372 35.0731
3.64335 11.7349 37.4747
3.80159 11.5103 36.3662
3.76607 11.5979 36.0807
3.68305 11.5365 36.8303
3.74823 11.407 36.3957
3.81019 11.8885 36.5478
3.63792 11.2488 35.4895
3.60758 11.2135 35.0074
3.60094 11.6824 37.2779
3.72159 11.5595 37.0832
3.77641 11.4748 35.7597
3.61183 11.3841 35.7227
3.56072 11.2178 35.6616
3.54012 11.0781 35.7678
3.64628 11.5213 36.6622
3.65251 11.3051 36.6073
3.68177 11.489 36.6633
3.67008 11.4705 36.3806
3.60019 11.1914 35.1215
3.48553 11.1364 35.6943
3.52326 11.1874 36.1729
3.59492 11.2793 35.6259
3.5263 11.4059 36.5832
3.57812 11.2455 35.6159
3.43811 10.9488 35.8344
3.52634 11.0699 35.407
3.48404 11.0732 35.2945
3.42872 11.0549 35.8748
3.46868 11.0698 36.0002
3.47439 10.819 34.9799
3.47477 11.2772 36.0536
3.44044 11.0087 36.0843
3.46182 11.0586 35.5075
3.37692 10.9563 36.1586
3.43779 10.618 34.8345
3.40302 11.0091 35.7198
3.41215 10.9397 35.0892
3.34429 10.785 34.926
3.32545 11.0072 36.5222
3.43525 10.7648 34.8117
3.33265 11.0874 35.9684
3.33903 10.7478 35.6547
3.37291 10.9041 35.4344
3.32072 10.7118 34.9967
3.30148 10.8275 35.4822
3.28709 10.5699 34.6101
3.24625 10.6182 35.1827
3.31015 10.8897 36.1436
3.35864 10.7887 34.8629
3.2049 10.3872 34.6011
3.2343 10.5919 34.5991
3.1531 10.3581 35.019
3.27967 10.6596 35.4015
3.27409 10.7794 35.6697
3.26766 10.5155 34.6415
3.19111 10.4318 34.3545
3.17074 10.6906 35.3504
3.17238 10.4605 35.5643
3.23425 10.7858 35.9386
3.22208 11.9989 52.8437
5.25207 14.9826 37.7717
3.20032 10.8822 34.9262
3.10939 10.6235 35.5678
3.13386 10.3554 35.8419
3.27026 10.548 34.0536
3.08535 10.6208 36.5167
3.2593 10.454 34.3051
3.10173 10.5081 35.4533
3.16807 10.4909 35.0596
3.11035 10.4028 35.2669
3.12815 10.1865 34.6971
3.13402 10.4909 34.7581
3.07672 10.3281 34.8526
3.0578 9.9897 33.5214
3.00103 10.0196 33.7025
2.98332 10.0857 34.0638
3.01219 10.1353 34.1536
3.01482 10.2093 34.5086
3.01721 10.0692 34.5925
3.04523 10.0804 34.2971
3.01869 10.2665 35.3424
3.08229 10.4562 35.6389
3.07058 10.1616 35.0398
3.08927 10.3835 34.945
3.00147 10.1072 34.9488
3.0599 10.2928 35.7947
3.12983 10.2677 34.4432
3.00684 10.1257 34.6767
3.05205 10.4488 34.6784
2.94595 10.0666 34.9869
3.00353 10.0571 34.3432
2.95605 10.1191 34.6745
2.99592 10.4177 34.9284
2.9 9.81783 35.0151
3.00959 10.042 35.1036
3.05198 10.2583 34.9699
2.97438 10.0138 34.7408
2.98104 10.2747 34.9024
2.90752 9.91554 34.6911
2.97266 10.229 35.3727
2.97747 10.013 34.1884
2.91428 10.3058 35.5435
2.95441 10.1014 35.6493
3.01399 10.1921 35.1387
2.93036 9.84375 34.1465
2.89219 9.88004 35.0547
3.00127 10.4347 36.073
3.04203 10.397 35.6273
2.95628 10.3164 35.5022
2.90932 9.67045 33.8598
2.83908 9.9202 34.8003
2.89921 9.93272 34.5223
2.8995 10.2765 35.6527
2.88176 9.75083 34.2756
2.85451 9.8383 34.3723
2.86461 9.96765 34.8132
2.88322 10.0381 34.9678
2.87489 10.0627 34.5292
2.78871 9.7042 35.3148
2.91087 9.92275 34.0679
2.77616 9.73994 34.9732
2.87792 9.87464 34.3913
2.80418 9.52388 33.4673
2.76995 9.8469 34.3546
2.77332 9.73333 34.4279
2.80658 9.98939 35.0129
2.81345 9.80226 35.2805
2.84894 9.91498 35.5952
2.86406 9.67603 33.5861
2.75036 9.90694 34.9575
2.8013 9.69844 34.5752
2.80912 10.0499 35.2831
2.79253 9.60534 34.3999
2.78654 9.98239 35.1025
2.76937 9.5962 34.1885
2.76188 9.96394 36.0167
2.85652 10.0141 35.8484
2.84033 9.7853 34.7778
2.77377 9.84877 34.6616
2.73202 9.64011 34.7475
2.75524 9.68303 34.7008
2.76939 9.89263 35.0088
2.73945 9.76066 34.6792
2.69209 9.49238 34.9855
2.74245 9.41847 34.2496
2.752 9.95204 35.1978
2.75303 9.69511 35.9152
2.86871 10.3196 37.4728
2.91926 9.80657 34.2485
2.70597 9.75653 34.955
2.74373 9.84766 35.556
2.77871 9.93174 34.9931
2.7035 9.94078 37.4615
2.91737 10.2605 37.4753
2.93566 10.772 39.0456
2.9988 11.902 55.0242
4.47363 13.762 38.6715
2.84798 10.4006 38.1227
2.94188 10.1857 35.8424
2.79309 10.0296 35.6874
2.71227 9.62035 34.8176
2.72068 9.9189 35.7398
2.7541 9.72856 34.3603
2.62543 9.51084 34.8425
2.67793 9.72113 34.9018
2.64867 9.31361 34.0386
2.62157 9.57645 34.8078
2.65569 9.56702 34.8668
2.68642 9.71837 35.2945
2.67912 9.63685 34.6796
2.62692 9.67205 35.7007
2.68372 9.33519 34.2216
2.63152 9.65365 35.1284
2.64306 9.41262 34.1837
2.59533 9.35392 34.0311
2.54937 9.1224 34.0495
2.60509 9.43697 34.2173
2.58891 9.25824 33.4954
2.50566 9.11652 33.4716
2.51306 9.25089 34.7275
2.59532 9.13297 33.6711
2.53563 9.16127 33.5121
2.54683 9.31374 33.652
2.49517 8.93001 33.611
2.56106 9.46375 34.3422
2.54032 9.33514 34.4429
2.54576 9.24077 33.9166
2.5203 9.19649 35.0861
2.61222 9.26701 33.2891
2.47851 9.11484 33.7802
2.5166 8.99757 33.0864
2.46677 8.98675 34.294
2.5565 9.3851 34.9337
2.59172 9.14301 32.7996
2.45091 9.23957 34.0414
2.49386 9.00879 33.2716
2.47667 9.15367 32.7431
2.38152 8.74736 32.9603
2.43957 9.10268 33.7471
2.47144 9.17753 34.4646
2.52331 9.28816 34.5682
2.52118 9.24419 34.3238
2.49452 9.03135 34.0445
2.49148 9.10481 34.0425
2.47085 9.07831 34.1564
2.4988 9.08525 33.517
2.44643 9.21223 33.7685
2.45238 9.14606 33.899
2.43356 9.09137 34.013
2.44256 9.05727 34.2607
2.46269 8.83451 33.2424
2.42762 8.9861 33.3341
2.38619 8.76541 33.1551
2.40422 9.00151 33.99
2.46059 8.92372 32.9917
2.38815 8.91116 33.4501
2.3964 8.65527 32.9664
2.36923 8.62901 32.8412
2.38143 8.91985 33.8483
2.41733 8.7823 33.4518
2.4301 8.82637 33.1536
2.38839 8.92807 33.4775
2.427 9.19194 33.6974
2.38298 8.94524 33.6169
2.3905 8.84211 33.2621
2.36725 8.70015 32.4889
2.32192 8.78687 33.3951
2.38689 8.99958 33.5602
2.36288 8.91306 34.1803
2.41068 8.73362 33.2731
2.38931 8.9944 33.3559
2.3345 8.68665 33.4803
2.37873 8.88416 33.1247
2.35042 8.74922 33.3331
2.35673 8.85336 33.6983
2.368 8.97435 34.11
2.3899 8.76208 33.5839
2.3687 8.83225 33.6221
2.37587 8.69331 32.9658
2.34843 8.76919 32.311
2.25477 8.68536 33.1915
2.32276 8.64904 32.7317
2.31039 8.87351 33.1745
2.29216 8.54241 33.5381
2.34104 8.71049 33.0783
2.30532 8.48968 33.1287
2.33568 8.82641 32.8538
2.2996 8.97053 33.6642
2.31978 8.62555 32.4728
2.25358 8.6859 32.9739
2.28612 8.93536 34.5397
2.374 10.2517 53.6399
3.8407 12.3173 35.0131
2.35176 8.9919 33.9112
2.35119 8.92309 33.63
2.30464 8.70293 32.82
2.26777 8.48973 32.3
2.23701 8.69735 33.17
2.26356 8.56516 34.1479
2.36232 8.6735 33.2571
2.31059 8.82583 33.7851
2.32368 8.6683 32.6983
2.25971 8.62239 33.3218
2.2953 8.75 33.6343
2.29691 8.78228 34.0144
2.30557 8.36593 33.235
2.29201 8.6378 33.5752
2.30318 8.59721 32.8987
2.26918 8.61587 32.3593
2.20967 8.41507 32.6332
2.24031 8.51651 32.1624
2.19604 8.60147 33.3425
2.25327 8.34851 32.0941
2.20088 8.37691 32.2582
2.19585 8.51657 33.7585
2.29811 8.5208 31.9885
2.18045 8.42763 33.0331
2.27172 8.71727 33.3548
2.25048 8.4519 32.9765
2.23445 8.71029 33.4154
2.25613 8.54372 33.6479
2.29029 8.53682 32.169
2.17806 8.52919 34.1366
2.30781 8.60529 31.9155
2.14655 8.31799 32.9878
2.23107 8.43075 32.3993
2.18348 8.52436 33.9027
2.28641 8.51059 32.9137
2.21862 8.36391 31.5727
2.13033 8.35306 32.941
2.22104 8.55402 33.5037
2.25959 8.55482 33.0368
2.20861 8.67599 34.0852
2.29063 8.67719 32.7133
2.18864 8.26075 33.0568
2.22168 8.52313 33.6274
2.25805 8.56815 33.4343
2.2426 8.65167 33.3652
2.23688 8.3742 31.9314
2.14235 8.41226 33.0815
2.21583 8.3866 32.1772
2.15546 8.4594 32.4318
2.14068 8.34794 33.1181
2.19831 8.26614 33.0861
2.21606 8.28687 31.9098
2.13482 8.28576 32.6068
2.18624 8.48748 33.2991
2.2171 8.28134 32.1329
2.14139 8.51472 33.0778
2.19104 8.15932 31.5913
2.09673 8.16335 32.3933
2.16727 8.48289 32.5447
2.15613 8.30813 32.9712
2.18551 8.43719 32.7485
2.17427 8.45945 32.7495
2.15129 8.28685 33.477
2.21726 8.43864 32.3092
2.13394 8.32262 32.3214
2.12479 8.27557 32.7715
2.15618 8.19983 32.8496
2.17936 8.27739 32.7509
2.18242 8.56706 33.4237
2.1965 8.53373 33.3397
2.18952 8.31359 32.6423
2.15759 8.51674 32.9129
2.15851 8.29402 32.5237
2.13693 8.09431 31.6765
2.08144 8.13585 31.9911
2.10248 8.21565 33.1302
2.18136 8.50667 33.0064
2.15509 8.35937 31.7817
2.06738 8.04476 31.7543
2.09068 8.45429 33.5275
2.18499 8.43719 33.2187
2.17593 8.19074 32.0005
2.09737 8.20957 31.8183
2.07169 8.08847 32.3329
2.11345 8.17813 32.1299
2.10502 8.2743 32.4895
2.11462 8.01955 31.9976
2.09778 8.16219 32.2287
2.11577 8.35309 33.494
2.18132 8.34398 32.7984
2.14446 8.23649 32.5705
2.12514 8.2692 32.8215
2.13226 8.48886 32.8307
2.13415 8.70713 32.3113
2.08383 9.98558 53.2014
3.45007 10.563 33.0767
2.1477 8.63038 32.4348
2.10543 8.23553 32.5316
2.11204 8.28411 32.7833
2.14322 8.44722 33.2324
2.14172 8.07705 31.5879
2.06048 8.25842 32.1304
2.08322 8.22989 33.9089
2.21169 8.47922 32.6922
2.11309 8.22201 32.1745
2.07014 8.1616 32.1584
2.08694 8.17468 32.5911
2.11291 8.40232 33.0142
2.12872 8.27461 32.6496
2.09457 8.21929 33.113
2.14048 8.23038 31.909
2.04538 8.0695 32.6023
2.11532 8.56723 35.499
2.29089 8.62441 32.6014
2.10443 8.06749 32.5042
2.09873 8.05244 32.4051
2.10056 8.41696 32.5835
2.08962 8.21148 32.9368
2.12451 8.25724 33.1998
2.12388 8.12502 31.2641
2.00887 8.10221 33.4714
2.1595 8.31424 32.4857
2.10525 8.18488 32.5104
2.09611 8.30554 33.1016
2.13523 8.31745 32.8442
2.11186 8.17398 32.9434
2.11871 8.30431 31.8837
2.05233 7.95752 31.9324
2.05862 8.06458 32.0905
2.05523 8.04113 32.3785
2.08331 8.10697 32.1953
2.06618 8.12166 32.4682
2.08716 8.19701 32.3628
2.08157 8.18838 32.7687
2.1071 8.1062 31.7369
2.03788 8.1532 32.3642
2.06957 7.90089 32.1625
2.07288 7.99653 33.0205
2.11631 8.5151 32.0592
2.05398 8.32913 33.3923
2.13412 8.01199 32.0172
2.04775 8.10126 31.931
2.04183 8.25859 33.2291
2.11623 8.20064 32.6304
2.0931 8.12545 32.0765
2.04852 8.04151 32.7878
2.09786 8.30276 32.5247
2.08091 8.18076 33.3667
2.13282 8.33503 32.5134
2.07259 8.35865 33.5134
2.14292 8.49501 32.9955
2.09994 8.04459 32.5516
2.07379 8.09742 32.8764
2.09844 8.32423 33.3036
2.1245 8.20888 32.8102
2.09121 8.37937 32.5253
2.07667 8.13613 33.0094
2.10638 8.12487 32.3494
2.0773 8.09661 32.6524
2.10045 8.21754 32.7267
2.09248 8.25986 33.1519
2.11033 8.20596 32.2177
2.04929 8.07138 32.0356
2.04058 8.12704 32.464
2.07357 8.1517 31.9559
2.041 8.03693 32.9766
2.09831 8.10794 32.1794
2.04738 8.15867 32.2309
2.05236 8.02563 32.9625
2.09282 8.1542 32.4649
2.0731 8.29861 33.1341
2.10573 8.28271 33.0752
2.09813 8.08225 32.2548
2.05776 8.48348 32.9769
2.09702 8.0914 32.8972
2.0873 8.1864 32.4551
2.07458 8.47259 33.6023
2.12762 8.34493 32.5051
2.06679 8.13294 32.4991
2.06546 8.39187 34.1144
2.1733 8.44707 33.2795
2.12514 8.09195 33.0907
2.10399 8.17889 33.3815
2.12951 8.31771 33.1387
2.10896 8.51957 33.2999
2.12758 8.41771 33.8541
2.16274 8.33862 34.0259
2.17317 8.60469 33.8946
2.16191 8.71629 35.4024
2.24458 9.60633 36.8554
2.32417 10.7518 55.4512
3.50318 0 0