# pn-170911/RbIIF-av-RbIIR-1280-1959.psd
# Power spectrum* (dif=0,1,2) (really just |FT|^2)
# NOTE: only the first half! (symmetric)
# weeks: 1280-1959
# 11909 clock-days, 397 excluded
# PSD: 1441
392.703 0.04963 0.0209171
28251.7 0.517919 0.0125482
137107 2.82999 0.0126799
25158.9 0.952534 0.0126343
65807.7 5.03709 0.012516
8105.89 0.758416 0.0124393
7942.43 1.1722 0.0125772
4168.83 0.75603 0.012501
3896.72 0.993592 0.012392
2503.85 0.761435 0.0123081
2315.74 0.895877 0.0132614
1643.61 0.763437 0.012004
1592.61 0.876063 0.0125711
1235.96 0.787542 0.0130504
1121.91 0.8485 0.0127331
960.643 0.837328 0.0129372
872.091 0.857869 0.0129295
784.658 0.880318 0.0140483
707.35 0.894247 0.0136236
608.364 0.854352 0.0139943
570.976 0.912156 0.0144028
554.595 0.947413 0.0142235
497.77 0.959201 0.0141726
469.275 0.980445 0.0157891
444.191 1.01511 0.0150062
412.732 1.01196 0.0155657
375.61 1.0209 0.0156157
373.097 1.10095 0.0153445
360.873 1.14444 0.0165571
325.727 1.09821 0.0171042
330.093 1.22558 0.0177878
307.929 1.18879 0.0176147
300.911 1.24953 0.0186873
285.094 1.29511 0.0188277
285.108 1.36396 0.0204122
266.166 1.35321 0.0199605
249.115 1.3078 0.0202186
248.618 1.42842 0.0208012
244.271 1.49058 0.0228257
240.544 1.50408 0.0236926
224.557 1.49376 0.0232233
223.522 1.60123 0.0256751
215.23 1.60353 0.0258892
215.096 1.69223 0.026794
222.204 1.83967 0.0291847
201.139 1.70974 0.0293414
200.829 1.80554 0.0311881
197.505 1.86737 0.0324571
202.702 2.01398 0.035323
185.456 1.92169 0.0346851
192.098 2.06032 0.036478
188.622 2.11855 0.0381457
181.5 2.12737 0.0391045
179.42 2.1878 0.041272
185.164 2.34584 0.046302
173.908 2.36188 0.0476303
173.767 2.37181 0.0486557
166.774 2.37139 0.0508433
170.854 2.52873 0.0527402
176.228 2.74399 0.0576148
164.711 2.57683 0.0548465
161.235 2.65255 0.0588307
160.748 2.75619 0.0633698
158.826 2.8277 0.0669371
157.933 2.87729 0.0682735
160.607 3.03947 0.0735688
161.03 3.07845 0.0768228
154.945 3.11376 0.0794421
156.33 3.21272 0.0832012
151.237 3.21698 0.0855968
145.209 3.19765 0.0882023
147.612 3.3474 0.0905442
143.096 3.31301 0.0956892
145.645 3.46884 0.101448
140.289 3.47712 0.1055
144.434 3.66024 0.109877
142.614 3.71764 0.114764
140.159 3.7424 0.116781
138.502 3.74838 0.120901
134.445 3.82489 0.128684
132.762 3.88601 0.132856
138.947 4.05628 0.138584
138.893 4.25688 0.147944
133.584 4.14729 0.147371
133.604 4.18067 0.153436
132.348 4.32465 0.162676
137.493 4.64544 0.177232
129.763 4.44041 0.171424
125.741 4.4111 0.176857
131.754 4.76075 0.191225
134.564 4.93452 0.202468
127.48 4.8203 0.201936
127.756 4.93138 0.208661
130.163 5.11625 0.221891
123.334 4.95792 0.220395
123.333 5.04548 0.229202
126.229 5.35934 0.247426
128.908 5.51161 0.25993
125.459 5.5215 0.264992
116.961 5.25919 0.258673
124.99 5.67066 0.283754
119.663 5.54576 0.27835
122.217 5.80283 0.301351
123.826 6.00142 0.313359
119.97 5.84187 0.312963
117.41 5.9064 0.322493
117.719 6.05421 0.338172
113.861 6.03827 0.338263
112.909 6.05376 0.352251
114.003 6.24503 0.37076
119.321 6.48117 0.383203
114.252 6.40749 0.387545
111.328 6.45468 0.394854
115.667 6.85204 0.425429
118.572 7.04802 0.442508
114.208 6.91124 0.448082
112.791 7.00877 0.460903
114.587 7.20462 0.478762
108.709 6.95571 0.474297
108.172 7.03009 0.481513
112.744 7.45766 0.521861
109.095 7.45949 0.531103
107.586 7.3241 0.52621
106.73 7.49945 0.551894
111.081 7.86321 0.588077
106.909 7.68302 0.586419
109.771 8.02919 0.619859
104.621 7.75351 0.604271
103.836 7.90706 0.623529
104.639 7.98262 0.638952
101.613 7.9312 0.648503
101.327 8.00973 0.671188
103.318 8.36112 0.702033
100.53 8.24573 0.700351
98.6595 8.14692 0.70539
103.683 8.77763 0.768557
99.8677 8.6489 0.765002
100.457 8.67208 0.785552
97.1801 8.58417 0.786919
98.0286 8.70421 0.810047
103.01 9.2373 0.86352
97.6279 9.02826 0.861937
97.2887 9.01437 0.874439
96.1502 9.13288 0.902018
97.0699 9.23163 0.914921
97.8966 9.5094 0.954352
92.1784 9.07481 0.923828
95.9862 9.61161 0.992852
92.391 9.28319 0.988232
100.749 10.3287 1.09734
95.2676 9.83335 1.05116
95.5852 10.0529 1.10313
87.9414 9.40156 1.02972
96.3028 10.4216 1.16893
86.8808 9.50122 1.08119
90.0502 10.0892 1.16562
90.6471 10.1686 1.17556
88.6125 10.0605 1.17976
93.0687 10.6962 1.26638
95.5951 11.1264 1.33846
92.5985 10.944 1.34662
87.3463 10.4507 1.29846
87.2844 10.6094 1.31911
93.6425 11.3773 1.42333
88.5808 10.9561 1.39825
90.8816 11.4272 1.47496
85.3359 10.8268 1.4278
86.3202 11.1652 1.47594
84.2945 10.9966 1.46409
86.5246 11.442 1.55409
87.1679 11.726 1.60834
85.363 11.4664 1.58352
85.3627 11.697 1.63934
86.2898 11.9601 1.70372
86.741 12.0501 1.7241
82.084 11.5392 1.67993
82.1119 11.7204 1.70681
81.539 11.7806 1.75243
81.088 11.9143 1.77987
76.7915 11.3991 1.7482
79.257 11.7725 1.79801
80.5287 12.111 1.8665
80.682 12.3497 1.94049
80.2309 12.4257 1.97291
76.3619 11.9245 1.91196
83.306 13.211 2.14776
81.1748 12.9022 2.11189
81.6948 13.0951 2.14701
77.0285 12.6171 2.12423
81.4876 13.4239 2.25248
76.2482 12.7426 2.18024
77.145 13.1599 2.30075
78.5605 13.1254 2.26482
76.6448 13.0931 2.27859
75.4085 13.1322 2.35325
74.7101 13.1013 2.33851
76.1297 13.4265 2.42655
74.1413 13.2906 2.42756
76.534 13.8669 2.56779
74.836 13.5734 2.53919
73.4084 13.5027 2.56322
76.0828 14.1459 2.67342
74.7758 14.0767 2.71796
74.6777 14.2355 2.77115
73.198 14.0182 2.72111
74.1149 14.4654 2.87248
75.0767 14.6807 2.93397
69.8941 13.7206 2.767
73.9775 14.7915 2.99309
69.5985 14.0335 2.8948
70.704 14.2763 2.96504
71.3913 14.5776 3.02145
69.5802 14.5652 3.09491
67.6051 14.133 3.0274
67.2101 14.2874 3.08939
69.5911 14.8298 3.21606
68.6098 14.7396 3.20651
68.417 14.8028 3.25484
69.1215 15.1452 3.38282
67.0079 14.7999 3.31126
65.778 14.6579 3.3476
64.9621 14.7484 3.39656
68.216 15.3415 3.53902
64.8933 14.8815 3.47481
64.926 15.0878 3.56681
66.7509 15.4561 3.63063
63.9215 14.9708 3.58177
63.1713 15.0248 3.64644
64.9525 15.4257 3.75347
64.5016 15.5243 3.80223
63.0803 15.2184 3.74731
62.2443 15.231 3.79954
64.527 15.9732 4.01526
64.2668 15.9346 4.02997
62.6529 15.788 4.05782
62.0353 15.7873 4.10157
61.1116 15.5367 4.02034
62.471 16.0902 4.23863
60.4075 15.6162 4.11696
62.6414 16.5937 4.45572
63.1431 16.6057 4.46412
60.7602 16.0663 4.33513
61.6877 16.4357 4.4892
59.1632 16.1642 4.48504
59.6228 16.161 4.49246
62.6819 17.3098 4.86477
57.7196 16.0683 4.54218
60.2888 16.5468 4.64845
61.0219 17.214 4.91617
58.5621 16.6737 4.83515
58.6851 16.9922 5.00343
58.789 17.101 5.06903
60.3349 17.4143 5.11509
59.7206 17.5058 5.20645
58.1798 17.1908 5.17793
57.1281 16.9504 5.09959
57.252 17.1656 5.22378
55.353 16.7023 5.12007
56.3412 17.1483 5.34112
57.0676 17.6334 5.48647
53.9548 16.5165 5.16143
56.6693 17.7706 5.62419
57.475 18.0859 5.73985
52.2701 16.6201 5.3626
54.2206 17.1852 5.52111
54.581 17.5658 5.72883
53.3148 17.4668 5.76273
53.458 17.5096 5.76855
52.9818 17.4137 5.82565
53.5363 17.464 5.84468
51.8056 17.2627 5.86885
54.4542 18.1861 6.13481
51.2058 17.3804 6.01802
53.4989 18.1785 6.26631
52.3611 17.9594 6.21517
51.1827 17.5845 6.13009
50.4275 17.5521 6.19083
50.824 17.6058 6.20575
48.7909 17.0982 6.11747
51.9894 18.5135 6.67475
50.0485 17.8074 6.43386
50.9637 18.3952 6.69141
49.7445 18.1264 6.68554
49.6938 18.3754 6.87794
49.3109 17.9697 6.67807
49.7593 18.2663 6.8483
51.5439 19.1065 7.21334
51.4999 19.368 7.36312
52.0788 19.693 7.50003
48.0705 18.2861 7.0874
48.4387 18.5146 7.22981
49.4628 18.8687 7.29504
46.7737 18.2954 7.25175
47.1247 18.4814 7.32827
46.373 18.3162 7.39945
46.6722 18.2527 7.25087
46.565 18.4717 7.38193
47.7295 19.2673 7.8065
46.2063 18.7748 7.69177
44.9084 18.34 7.63578
45.6599 18.4631 7.66994
45.9322 18.7135 7.71347
46.3154 19.1739 8.05508
45.3416 18.8036 7.90299
44.4167 18.7601 7.97618
43.8483 18.4968 7.87427
45.4119 19.2695 8.29775
44.952 19.1512 8.31481
45.9243 19.8553 8.70679
46.586 20.2618 8.86442
45.3824 19.6762 8.70217
45.4343 19.6527 8.57457
43.0312 19.1198 8.65187
44.3302 19.6327 8.80296
43.3891 19.2062 8.60821
43.6287 19.645 8.91707
40.0329 18.0915 8.38927
42.3933 19.2258 8.87798
42.3042 19.1571 8.77462
41.2632 18.921 8.72612
39.5762 18.4332 8.69358
43.1285 20.2012 9.52216
43.0207 20.1756 9.5429
40.624 19.2032 9.27477
41.1983 19.3443 9.16667
38.5096 18.5727 9.0755
40.7009 19.4339 9.37579
39.5366 19.1149 9.37947
41.9649 20.3066 9.92063
39.861 19.4311 9.63444
40.7759 19.9535 9.84832
39.3994 19.5081 9.77072
39.3819 19.4227 9.77046
39.7751 19.8466 10.0319
38.8163 19.4133 9.93622
39.9282 20.0882 10.1905
38.2451 19.6932 10.2392
37.9873 19.1071 9.78995
39.4176 20.5064 10.6953
38.5129 19.979 10.5212
38.4101 20.0276 10.6281
36.8688 18.9691 9.97076
36.6703 19.2183 10.1887
37.6781 20.0275 10.6333
35.9901 19.2142 10.4361
36.3893 19.2539 10.493
38.2747 20.4907 11.1265
37.4644 20.1554 10.9773
35.9989 19.7688 11.053
36.9161 19.9883 11.0567
35.7833 19.6984 11.0191
37.3869 20.4784 11.4094
37.7404 20.5862 11.3784
37.3001 20.954 11.8595
36.4385 20.0916 11.1797
35.002 19.9335 11.4394
35.1705 19.7906 11.2865
35.5127 20.5884 12.1531
36.716 20.6596 11.8182
33.2973 19.2754 11.3304
34.8278 20.1898 11.8052
33.9894 19.7051 11.6032
34.7967 20.3754 12.0775
34.1577 19.8439 11.7076
34.1996 20.687 12.5783
34.548 19.9417 11.7703
35.1478 20.9822 12.5307
32.8261 19.7693 12.0264
32.7225 19.905 12.2492
33.901 20.6588 12.7091
33.5754 20.1229 12.2333
32.9238 20.4489 12.7404
32.2921 19.9134 12.4336
30.6761 19.1901 12.2888
33.4997 20.8943 13.3026
33.0953 20.3052 12.68
31.4227 19.8539 12.81
32.4396 20.1301 12.6591
31.2706 19.8913 12.7708
30.7446 19.7355 12.8748
30.8586 19.5933 12.6777
30.5424 19.4767 12.6261
29.5547 19.2323 12.7766
32.5964 21.259 13.9883
31.3337 20.7169 13.8864
31.582 20.5583 13.6068
30.7901 20.1809 13.4759
30.9782 20.503 13.7836
30.9652 20.6125 13.8411
30.3636 20.4143 13.888
31.1644 21.1651 14.5178
30.7394 20.549 14.0562
30.3471 20.7792 14.4215
29.8533 20.2145 13.8296
29.7064 20.6612 14.6649
31.4554 21.2041 14.3744
29.6247 20.8138 14.7315
29.1853 20.2479 14.2036
29.0117 20.3086 14.3888
28.2811 19.98 14.2915
28.599 20.1879 14.4457
28.0168 20.0042 14.4851
28.7382 20.3447 14.6239
28.5073 20.7077 15.2216
28.475 20.3539 14.8846
28.7977 20.4894 14.8046
27.761 20.3761 15.1514
28.9091 20.926 15.3202
28.4845 20.9127 15.3444
26.8473 20.0116 15.1412
26.7347 19.6215 14.7772
28.2523 20.7208 15.2898
26.2697 19.6335 14.8866
27.4983 20.6655 15.6657
26.8975 20.3335 15.5496
27.0537 20.4692 15.5942
26.3589 20.0546 15.5337
26.667 20.2452 15.6577
26.4089 20.1156 15.5639
26.6064 20.6955 16.2543
26.2013 20.2575 15.9351
26.637 20.7086 16.4121
27.0379 20.8629 16.3361
25.6321 19.886 15.6405
25.7893 20.3305 16.1841
25.6536 20.3183 16.3403
26.5162 20.8478 16.6115
25.6156 20.4955 16.6498
26.5713 21.0532 16.9566
25.1933 20.1724 16.4132
25.5433 20.6103 16.8156
24.9885 20.3375 16.7717
24.8201 20.3196 16.816
25.9816 21.2709 17.4724
24.3686 20.0229 16.7594
24.6726 20.4092 17.191
25.541 21.2278 17.8478
24.8878 20.5919 17.2643
24.2582 20.3427 17.3911
24.9197 20.7041 17.4088
23.6069 20.1321 17.4945
25.0597 21.0391 17.8527
23.8233 20.2164 17.526
25.3275 21.7115 18.6284
24.9441 21.3972 18.4678
23.1053 20.0056 17.5598
23.657 20.5223 18.0591
23.4036 20.3591 17.9772
23.7894 20.8079 18.418
23.9582 20.9797 18.3385
23.0193 20.2414 18.0655
23.6718 20.9735 18.8256
23.7206 21.0923 18.9387
23.8424 21.2621 19.2979
23.2645 20.5001 18.2528
22.8651 20.6634 18.8418
22.7637 20.7508 19.1602
23.3583 20.7323 18.7967
23.123 20.8522 18.9225
22.4963 20.4583 18.8321
22.2005 20.648 19.5047
23.2207 20.6664 18.8874
22.3998 20.55 19.1092
22.1368 20.4395 19.0065
22.1036 20.7885 19.9385
22.4435 20.5749 19.1272
22.1674 20.8232 19.6718
22.1313 21.267 20.5688
22.1509 20.6848 19.8758
22.4252 21.0877 20.044
21.8793 20.7371 19.8159
21.8327 21.0353 20.3601
21.7412 20.6497 19.7972
20.6485 20.3266 20.3024
22.073 21.0802 20.5028
21.0523 20.0543 19.7155
21.5267 20.7207 20.1238
20.9537 20.7956 20.8836
20.9913 20.3436 20.1266
20.3889 19.9328 19.6813
20.2586 20.1466 20.2298
21.2124 21.2149 21.395
20.0867 19.7854 19.9006
20.9862 21.333 21.7493
20.7516 20.9073 21.4427
20.4064 20.4662 20.9706
20.3388 20.2981 20.5766
20.1198 20.1345 20.2866
19.7787 20.4982 21.3632
20.1622 20.3868 20.9274
19.9212 20.6171 21.6239
20.3603 21.074 21.7612
19.7171 20.7524 22.1764
20.1901 20.8225 21.9157
20.8856 21.5555 22.1897
19.0231 20.252 21.9717
20.277 21.1374 22.35
19.0732 19.9143 21.2537
19.2735 20.1728 21.368
19.2126 20.6211 22.2501
18.8331 20.0803 21.8202
19.5296 20.6177 21.9488
19.07 20.6768 22.6205
18.8539 19.9668 21.4725
18.3741 19.9747 21.9341
18.7896 20.7996 23.405
19.2255 20.2418 21.6385
17.9138 19.9739 22.6328
18.9618 20.3252 22.4157
19.514 21.1329 22.8465
18.9575 21.4478 24.2083
18.821 20.6841 22.9737
18.1138 20.3722 23.2273
18.5218 20.2872 22.6854
18.6741 21.2257 24.0012
17.7247 19.8178 22.617
17.6884 20.0842 22.9702
17.6761 19.3757 22.0147
17.7749 20.3486 23.5334
17.693 19.7035 22.3304
17.1851 19.8717 23.3374
18.3255 20.8871 23.7989
17.2299 19.8828 23.3358
17.483 20.4247 24.0588
17.2486 19.8686 23.4733
18.2225 20.7375 23.9688
17.5527 20.1902 23.5599
16.735 19.578 23.0583
16.7988 19.9707 24.0105
17.2461 20.2694 24.232
16.5599 19.257 22.9458
16.1472 18.7611 22.4808
17.3729 20.6735 24.4029
16.2077 19.3493 23.6602
17.4392 20.9525 25.1437
16.5801 19.9409 24.3837
16.8923 20.7156 25.6523
17.0195 20.2302 24.5713
16.9247 20.5368 25.2547
16.9422 20.8996 26.0674
16.5343 19.6363 24.1186
16.1478 19.7408 24.4231
16.0782 19.445 24.2195
16.6882 20.6121 25.3455
16.4236 20.2979 25.1141
15.3836 19.2203 24.359
15.8696 19.6043 24.6672
15.8683 19.7265 24.9898
16.1079 20.1055 25.4936
16.0304 19.6801 24.4081
15.6589 19.9719 25.6261
15.9683 20.3849 26.0917
14.9639 18.5043 23.5706
14.957 19.2134 24.8194
15.547 20.0396 25.7116
15.0601 19.399 25.1313
14.3036 18.4753 24.4016
14.9001 19.0684 24.9966
15.5218 19.9927 25.7827
15.153 19.8753 26.3943
15.6604 20.146 25.9593
14.8015 19.665 26.3646
14.6642 18.9189 25.2041
14.8329 19.5385 25.7604
14.7719 19.879 27.1222
15.1866 19.7908 26.2685
14.7629 19.6665 26.3522
14.2746 18.9809 25.7401
14.2853 19.0873 25.9865
14.309 18.8724 25.8293
15.2393 20.247 27.0626
14.8656 20.0491 27.2172
14.2212 19.0297 25.9898
14.565 19.9772 27.2995
14.2171 19.4782 27.1742
14.7223 20.1973 28.0811
14.6698 19.8661 27.5077
15.0284 20.5013 28.3305
15.5155 21.5071 29.5464
14.6366 20.1124 27.9391
14.3109 19.8102 28.113
14.3312 19.5965 27.1248
13.2805 18.6573 26.9148
14.0686 19.3851 27.1011
13.1606 18.5158 26.963
13.9042 18.9312 26.6989
14.6654 20.2617 27.8867
13.4445 19.1038 27.4987
13.4315 19.1521 27.7111
14.0296 19.9917 28.7251
13.6652 19.3771 27.6084
12.9617 18.5967 27.1894
13.3863 19.1343 27.7547
13.0712 18.3984 26.4485
13.2445 19.4049 28.7917
13.5182 19.2546 28.1967
13.5329 19.192 27.5291
13.0934 19.1117 27.8522
13.0213 19.1016 28.2701
12.4543 18.0427 27.1412
13.2552 19.1655 27.9735
12.6567 18.7069 27.884
12.8933 19.146 28.7962
13.0875 19.1556 28.6576
12.717 18.6533 28.2528
13.0699 19.5969 29.858
12.9154 18.7591 28.0848
13.2694 19.7303 28.9329
12.5325 19.3091 29.9221
12.6733 19.0946 29.5467
12.9488 18.8743 28.2827
12.2922 18.5528 28.3142
12.0108 17.9164 27.4998
12.3753 18.9168 29.092
12.0334 18.2425 28.5195
12.4373 18.1491 26.787
11.7681 18.4459 28.6272
11.9895 18.5561 28.8383
11.6119 18.0538 28.8359
12.1206 18.4795 28.8812
11.5403 17.86 28.7523
12.778 19.7311 30.6336
12.2791 19.0092 30.1179
12.0847 18.345 28.7826
12.5143 19.4848 30.1328
11.8922 19.0523 30.5362
12.024 18.6967 29.3072
11.4663 18.4171 29.5434
10.9255 16.9951 27.5355
11.4761 18.2992 29.3086
11.4102 17.9314 29.1023
11.9341 19.0468 30.6232
11.4933 18.139 29.0132
10.9496 17.5758 28.8003
11.5649 18.7026 30.4662
11.6615 18.6825 30.0336
11.7801 19.4892 32.5012
11.9992 18.6264 29.7166
11.3367 18.6091 30.0579
10.5698 17.479 29.6964
10.8423 17.4853 29.3631
11.4261 19 31.9189
11.8204 19.1388 31.709
11.6736 19.0415 30.8541
10.8482 17.8947 30.0708
10.92 17.8865 29.7928
10.9161 18.2236 30.197
10.6485 17.755 29.8757
10.6103 17.9867 30.9108
10.8854 18.205 30.813
10.9726 18.7048 32.0096
10.6806 17.6167 30.4551
11.1814 18.8375 32.193
11.2611 18.7699 31.3751
10.3807 17.5993 30.8338
11.249 18.8176 31.5715
11.022 19.0016 32.7452
10.8689 18.272 31.5828
11.1582 19.0977 32.2637
10.5398 18.6643 33.0915
10.3707 17.8655 32.1339
10.717 17.5971 29.8195
10.43 18.0571 31.632
10.686 18.4937 32.0922
10.3145 17.8344 31.4938
10.6862 18.5856 31.8547
10.3565 18.7076 33.7766
10.6318 18.5799 33.2122
10.2391 17.7744 31.9319
10.3309 18.0398 32.1738
10.3239 17.8375 31.4837
10.1316 17.9975 32.5087
10.6153 18.4952 32.6324
10.793 19.3599 34.2985
10.1501 17.9941 32.3676
10.0942 18.2715 33.1177
9.80058 17.333 32.0308
10.2714 18.1192 32.0473
9.67065 17.6791 32.8485
10.2735 18.4986 33.8354
10.2001 18.4471 33.8239
10.2951 18.3938 32.9375
9.76787 17.6408 32.4291
9.75076 17.3198 31.4412
9.52208 17.6013 32.4798
9.37932 16.9793 31.8391
9.48598 16.946 31.0697
9.69992 18.1972 33.9041
9.52186 17.2497 32.2199
9.85226 18.1612 33.2119
9.52497 18.0079 34.2301
9.49376 17.0017 31.4759
9.20462 16.9108 31.0868
8.81895 17.0758 33.2861
9.47679 17.4758 32.7398
9.18651 17.3286 33.6862
9.48574 17.336 32.8158
9.53541 17.6045 32.7288
9.3412 17.6962 33.0663
9.12037 17.6177 34.2024
9.20766 17.085 32.9324
9.24877 17.1444 32.0939
8.78746 16.8817 33.2239
9.4588 18.0544 34.5459
9.09901 16.9877 32.4688
9.14912 17.7575 33.8117
8.62385 16.4064 32.1113
8.56888 16.6962 33.2602
8.84877 16.9746 33.3143
8.82177 16.6983 32.8496
9.1498 17.5005 33.5447
8.76639 17.1858 34.0822
8.69305 16.5322 32.4562
9.03968 18.0906 35.8244
8.97148 17.4777 35.335
9.22649 17.3392 33.8726
9.00282 17.503 34.2338
8.34892 16.3203 32.7044
8.68108 17.0739 34.2892
8.83995 17.308 34.6837
8.75454 16.9674 33.6938
8.62144 17.0988 34.9299
8.88031 17.1689 34.1525
8.71966 16.9725 32.9566
8.23979 16.8101 33.3548
7.75792 15.8952 34.0942
8.71289 16.7299 33.0834
8.60507 17.3822 34.4681
8.38021 17.2071 34.9467
8.17448 16.5513 34.1142
8.17408 16.2372 32.8011
7.93735 16.3432 34.5476
8.45227 16.8668 34.1004
8.05626 16.1722 33.3773
8.06544 16.2743 33.7799
8.09586 16.582 34.9917
8.41896 16.9578 34.5775
8.23434 16.848 34.7993
7.86754 16.0676 34.188
8.12822 16.5423 34.6051
8.34542 16.975 34.6562
7.9892 16.3487 33.9688
8.04316 16.6651 34.8925
8.04675 16.6211 35.0141
7.95354 16.1437 33.1329
7.56084 16.1255 34.9581
7.92746 16.1674 34.0571
8.11777 16.9814 34.893
7.53742 16.0978 34.5541
7.77186 16.3184 34.3556
7.86511 16.7764 35.9867
7.69868 15.8733 34.0516
7.64764 16.1292 34.3327
7.4179 16.0199 36.2465
8.23315 16.7343 35.1002
7.8946 16.7277 35.4054
7.3915 15.3447 32.642
7.49361 16.4308 35.2095
7.44437 15.8961 34.399
7.19533 15.3441 33.6228
7.55985 16.4562 35.7504
7.43849 15.9777 35.1309
7.63312 16.2069 35.1489
7.43332 16.1037 35.3118
7.50459 16.231 35.5987
7.61645 16.6185 36.1788
7.39179 16.0139 35.6926
7.54134 15.9841 34.5713
7.31388 16.4574 36.7031
7.35854 15.647 34.5133
7.2509 16.1262 35.8272
6.90854 14.7022 33.4856
7.2474 15.8122 35.021
7.396 16.0652 34.9104
7.20336 16.0015 34.6989
6.82614 15.3365 34.6526
6.93529 15.7224 36.159
7.30353 16.2409 37.0089
7.31526 16.1891 36.3741
7.0655 15.2865 34.4256
6.9525 15.69 36.5561
7.43391 16.2226 36.0777
6.94642 15.1143 33.3609
6.82541 15.8007 36.1786
6.6837 14.6769 33.6792
6.9873 15.9814 36.0834
6.87293 15.4992 35.5781
6.63302 14.6077 33.9212
7.09307 16.4279 37.8169
7.29849 16.3031 36.2317
6.71707 15.6144 36.2009
6.65039 14.7614 34.5266
6.98138 16.1351 36.2663
6.58035 14.772 33.9316
6.69947 15.9837 37.8514
6.94092 15.6211 35.6713
6.41795 14.8695 35.4589
6.71061 15.8922 38.8726
7.38766 16.1409 35.3986
6.42269 15.4459 37.8074
6.79689 15.3064 36.1149
6.54663 14.6279 34.3388
6.73356 15.6426 35.8537
6.59772 15.2813 35.0883
6.2283 15.0703 36.9205
6.5762 14.9751 35.7693
6.64698 15.3472 36.6386
6.69274 15.1997 34.5413
6.10467 14.6638 35.5636
6.44268 15.3289 36.6071
6.18976 14.12 33.7192
6.16679 14.8376 36.2948
6.54 15.4699 36.161
6.21897 14.4932 34.9653
6.36602 15.3479 37.0788
6.32046 14.8495 36.0137
6.39593 15.5119 38.0937
6.58242 15.3702 36.7519
6.2732 14.7661 35.9022
6.3416 15.2912 36.792
6.388 15.7588 39.9518
6.8685 16.0475 38.015
6.29233 15.4542 39.566
6.82939 15.9899 38.5717
6.55862 15.7621 38.5402
6.45203 15.1979 37.0277
6.60741 16.2841 39.5803
6.40332 15.4739 38.3373
6.54629 16.0627 39.3316
6.40595 15.4359 38.3567
6.34454 15.2661 37.7674
6.29823 15.596 38.9154
6.50459 16.0634 40.1108
6.3699 15.1291 37.0935
6.32776 16.036 40.3451
6.37204 15.3544 38.5387
6.41024 15.5159 38.3454
6.41493 16.1802 40.4119
6.35445 15.4443 38.9156
6.55022 16.404 40.7967
6.40222 16.0278 40.879
6.5714 16.072 39.9657
6.26907 15.4727 38.9599
6.07686 15.1084 38.9293
6.34776 15.9302 40.6695
6.44096 15.8825 40.0745
6.66914 17.1699 42.6893
6.33211 15.861 40.7321
6.23036 15.2932 38.6073
6.04107 15.374 39.6029
6.14778 15.6326 40.3534
6.23779 15.6991 40.6277
6.22094 15.6758 41.0501
6.44862 16.0561 40.6802
6.15923 15.3691 39.5064
6.29207 16.3792 41.8907
6.16865 15.5805 40.7169
6.20831 15.3131 38.9683
6.08937 16.1127 41.4519
6.08103 15.6941 41.6087
6.30038 15.7583 40.1227
6.02927 15.4925 39.9604
6.13183 16.2721 42.6618
6.20186 16.2529 43.7609
6.48102 16.227 42.5781
6.46707 16.6706 42.4664
6.09989 16.0434 42.2513
6.06536 15.9008 42.4282
6.08071 15.3734 40.3293
6.04239 15.7261 41.1331
5.87879 15.3913 40.8243
5.83214 14.8437 39.5609
5.97861 15.7537 41.5079
5.89685 15.2649 40.7843
5.88034 15.2963 40.2945
5.88354 15.6797 41.648
6.05084 15.8908 41.2405
5.72242 15.5211 42.397
5.76846 14.4885 38.4962
5.64471 15.2496 41.5957
5.97379 15.8069 41.5974
5.56625 14.6107 40.6156
5.90619 15.4859 40.6689
5.58096 14.9405 40.871
5.83798 15.4352 41.1976
5.65994 14.9798 41.0705
5.8074 15.6513 42.1615
5.65609 14.726 40.3324
5.86286 16.0379 42.8509
5.57202 14.4055 39.0495
5.27673 13.6995 37.7743
5.49913 15.0836 40.3241
5.40206 14.9556 41.7473
5.48506 14.426 40.2731
5.42407 14.4854 40.2959
5.51518 14.6057 40.4382
5.72567 15.4658 41.6097
5.50965 14.5761 39.2712
5.30077 14.5509 40.9346
5.32063 14.0193 38.5578
5.21794 14.2058 39.0819
5.24815 14.5907 41.0995
5.51416 14.7442 39.5065
5.19962 14.6076 41.7066
5.63518 15.3746 42.2433
5.58029 15.4746 42.0894
5.28182 14.715 42.5858
5.52648 14.8254 40.8549
5.33547 14.6549 41.7488
5.51157 14.9134 40.094
5.11636 14.2705 40.2459
5.1883 14.6073 41.0406
4.95389 13.3479 39.4149
5.31771 14.5543 40.6721
5.27959 14.6065 40.4779
5.11229 14.1536 40.4649
5.20359 14.2839 40.5934
5.24894 14.6174 41.6704
5.32234 15.0271 42.6769
5.47592 15.4027 42.661
5.2307 14.7116 41.5106
5.21797 14.6094 41.9343
5.25329 14.7427 42.8086
5.34355 14.449 41.0614
5.24267 14.7126 42.1472
5.25203 14.5418 40.7401
5.1501 14.6987 41.9475
5.26134 14.9475 42.5365
5.06897 13.8314 39.7444
5.02012 14.5463 41.1022
4.97329 14.1342 39.5933
4.75195 14.1432 42.3439
5.06552 14.2381 41.9281
5.07366 14.3663 42.5271
5.22217 14.7048 41.2415
4.88376 14.0186 41.6719
5.26892 15.3254 43.4499
4.96775 13.7804 40.3279
4.83682 13.7165 40.2483
4.82001 13.6338 39.7313
4.76556 13.8709 41.3054
4.97482 14.4126 42.9997
5.20171 15.047 44.4689
5.25784 15.3342 44.6948
5.09617 14.2563 41.5482
4.8558 14.086 41.9429
4.98421 14.0358 39.9008
4.60259 13.6378 40.5182
4.63625 13.2486 39.986
4.90731 14.465 43.3137
5.1958 15.1568 43.1367
4.83669 14.0305 40.8519
4.66259 13.8414 40.7109
4.53455 13.1066 40.4683
4.88262 14.4359 42.8003
4.83328 13.9562 41.0917
4.569 13.0005 39.7314
4.73542 14.0992 41.8529
4.72678 13.6385 39.9926
4.5423 13.5422 41.7098
4.87775 14.4277 41.5548
4.49222 13.4952 41.2375
4.56014 13.5047 42.1813
4.77985 13.5326 39.8203
4.5845 13.9857 42.0459
4.6526 13.8083 41.9723
4.6665 13.7573 42.2343
4.68684 13.6523 40.8767
4.5425 13.466 40.9345
4.6255 13.6784 41.4734
4.58985 13.2959 38.7085
4.3425 13.508 42.1388
4.62047 13.7483 40.858
4.47185 13.8306 42.9055
4.60604 13.465 41.6733
4.64877 13.9208 41.9167
4.52573 13.8534 44.0825
4.71659 13.758 41.7959
4.54894 13.258 39.1866
4.24009 13.045 41.5834
4.59052 13.5388 39.6751
4.26254 13.1958 40.4005
4.32195 13.4673 41.394
4.44741 13.7818 42.7115
4.43378 12.9079 38.8044
4.11639 12.839 40.5372
4.31897 13.2569 40.753
4.31564 13.2112 41.8044
4.39466 12.8628 38.3139
4.06322 12.3286 37.8982
4.06541 13.1867 42.2963
4.52404 14.2413 44.2803
4.45075 13.4103 42.5169
4.41236 13.2193 41.9369
4.38337 13.075 40.2303
4.23953 13.1527 42.3011
4.29404 12.4821 39.5166
4.30656 13.3891 41.1018
4.26578 13.3786 42.6404
4.36233 13.0582 40.6614
4.20773 12.7957 40.4692
4.27081 13.5261 41.9523
4.27887 13.3082 41.9805
4.14074 12.3183 38.7053
4.09642 13.2627 42.1129
4.214 12.5926 39.0262
4.05149 12.9453 40.6692
4.00595 12.3444 39.009
3.92182 12.228 39.5549
4.04152 12.6278 39.9494
4.03722 12.7589 42.0424
4.26073 12.8321 39.2871
3.93803 12.5083 40.9684
4.20877 13.4616 42.8147
4.19659 12.8333 39.7635
3.9192 12.3259 40.9141
4.2198 13.4022 41.7567
4.08298 13.0767 42.3167
4.14062 12.9291 42.6535
4.24512 13.188 41.051
3.90686 11.9599 39.255
3.91515 12.272 39.6463
3.90236 11.943 37.812
3.7159 12.4002 42.3079
4.18487 12.829 40.5325
3.93628 12.2565 38.9532
3.84873 12.495 40.909
4.09157 13.0848 40.7086
3.80105 11.7376 38.0961
3.75407 12.0423 40.708
4.04525 13.0703 41.8548
4.04374 12.816 40.9117
3.92076 12.8793 42.4873
4.11544 13.271 41.9256
3.83821 11.8956 38.8924
3.77727 12.275 40.6427
3.85884 11.9495 38.6283
3.63919 11.5906 39.0089
3.76089 12.0327 39.0391
3.78542 12.4613 40.1434
3.72389 11.8905 38.6457
3.63679 11.8035 38.8543
3.67995 12.1483 40.7211
3.80383 11.7798 37.9181
3.6373 11.9976 39.6612
3.68863 11.7396 37.8226
3.52126 11.5806 38.9351
3.58721 11.2555 37.204
3.50835 11.3659 37.9976
3.56903 11.4075 37.6515
3.50786 11.6776 38.8488
3.57301 11.6464 39.9545
3.69357 11.865 38.6544
3.5491 11.544 39.0036
3.59359 11.5495 38.9737
3.73756 12.2913 40.0755
3.67121 12.0192 39.0292
3.60328 12.3145 40.7247
3.4972 11.0043 38.1276
3.54161 11.4497 37.6183
3.40515 11.2302 38.274
3.50082 11.426 37.9459
3.39541 11.0751 38.2088
3.48899 11.0319 36.6367
3.46538 11.7433 38.7623
3.47005 11.8321 40.4885
3.63808 12.0319 39.132
3.43674 11.2952 38.5531
3.52063 11.8199 40.7476
3.64346 11.853 39.715
3.58762 11.7527 38.2072
3.37033 11.162 37.869
3.37479 11.2208 38.0181
3.44757 11.767 40.1077
3.49666 11.4135 39.1677
3.44831 11.3341 39.4482
3.58855 11.9545 40.1325
3.53869 11.8081 41.057
3.61861 11.6976 38.1463
3.34213 11.3723 39.7457
3.54797 11.7329 39.3451
3.40692 11.38 39.3587
3.46452 12.031 41.2856
3.5231 11.1661 37.5903
3.3902 11.7709 39.5151
3.36911 11.3091 38.7226
3.34762 11.2438 38.9068
3.36082 11.2717 38.4338
3.37122 11.6301 39.7097
3.37178 11.4052 39.3569
3.37265 11.2603 38.6364
3.28928 10.8214 37.32
3.23943 11.2079 39.144
3.37231 11.3048 38.5723
3.30922 11.3604 39.8453
3.37934 11.3247 40.1756
3.49793 11.6583 39.1662
3.29025 11.3253 39.3216
3.32943 11.2767 39.0885
3.30499 11.2295 39.4738
3.32909 10.8132 37.8335
3.25349 11.2367 39.5417
3.36603 11.376 39.3575
3.33339 11.2704 38.51
3.22849 10.9826 38.3933
3.26936 11.2716 38.7798
3.27057 11.2503 39.1995
3.3131 11.4518 40.5013
3.34005 11.0452 38.7397
3.26484 11.1509 38.0608
3.16318 10.9055 38.1228
3.15892 10.8335 38.7829
3.23213 11.1299 40.1941
3.36122 10.9529 37.3849
3.16681 10.9525 38.7856
3.23104 11.3537 40.3409
3.25017 10.4195 36.9007
3.19973 11.2717 39.409
3.27215 11.5285 39.9316
3.22809 11.1811 39.8103
3.22758 10.9356 39.3301
3.23535 11.0678 39.5342
3.24088 11.0174 38.6219
3.1646 10.8912 38.8415
3.22042 10.9607 38.4583
3.11991 11.0248 39.1442
3.23535 11.2101 39.275
3.16784 11.0681 39.3898
3.23903 11.4336 38.9745
3.1221 11.044 39.4495
3.16971 10.9649 39.9397
3.25233 11.1521 39.1588
3.17673 11.182 38.96
3.10434 10.9085 40.2497
3.27692 11.2415 39.2708
3.15619 11.2212 39.7449
3.17384 11.0719 39.098
3.09239 10.8006 39.0155
3.15047 11.3635 40.9946
3.23697 11.1272 38.8383
3.04285 10.7507 40.0075
3.1966 11.2421 39.6272
3.13883 11.1583 41.3188
3.23293 11.0676 40.2857
3.20672 11.1228 40.5766
3.21408 11.0213 39.9961
3.19843 10.9074 38.3344
3.12435 11.2306 39.1921
3.09714 11.2645 39.8012
3.05983 11.134 42.2029
3.31311 11.6885 44.1875
3.50907 12.3342 44.2004
3.41284 11.5097 41.6206
3.29505 11.7595 42.3278
3.30334 11.2153 38.6484
3.03408 10.8112 38.6743
3.05128 11.1338 40.6388
3.14687 11.2329 41.4701
3.24235 11.2863 40.3861
3.11205 10.7874 39.209
3.08782 11.1092 40.5799
3.14752 11.0008 39.7841
3.09588 11.1527 39.7705
3.00261 10.5289 39.1432
3.00873 10.6221 39.0869
3.00517 10.6234 38.8948
3.02165 10.9329 39.0687
2.95552 10.2798 37.0606
2.9049 10.5995 38.8096
3.02133 11.3174 40.3553
3.01682 10.5979 38.5542
2.94983 11.0934 39.1061
2.88371 10.5636 41.2464
3.11168 10.6161 39.8068
3.08825 10.79 39.068
2.95828 10.7684 39.5812
2.96768 10.2633 38.6986
2.98147 10.7764 38.6643
2.93223 10.8527 40.1021
3.01272 10.8802 39.365
2.94795 10.4535 38.687
2.96022 10.7746 39.5688
2.97136 10.7174 39.1775
2.91876 10.5602 38.9308
2.94583 10.8449 40.2461
2.99602 10.5898 39.0872
2.94736 10.9993 40.9718
3.02935 10.49 38.6305
2.90468 10.692 39.6694
2.91792 10.326 38.5602
2.89181 10.6286 39.788
2.94138 10.4033 39.0256
2.91627 10.4573 39.2615
2.97181 10.9321 39.3334
2.88636 10.3397 38.926
2.8964 10.5381 40.4003
3.00666 10.6893 39.7091
2.96578 10.7219 39.2054
2.85994 10.3495 39.3809
2.95243 10.8557 40.6418
2.97311 10.5112 38.2525
2.83571 10.5224 39.1142
2.9134 11.1245 41.7685
3.05216 11.2783 41.298
2.93433 10.4273 39.1714
2.86859 10.6121 39.615
2.85813 10.4711 40.3724
2.9587 10.1952 36.7469
2.69813 10.1568 38.7289
2.84263 10.4885 39.9996
2.91269 10.5917 40.7857
2.9792 10.5413 38.6763
2.84765 10.2784 37.8842
2.79262 10.8552 39.8533
2.84858 10.1861 39.0878
2.86304 10.3715 38.3439
2.82251 10.6525 39.3055
2.82873 10.153 38.3748
2.77936 10.5766 40.1659
2.90523 10.4256 38.8441
2.8054 10.4656 39.9056
2.89662 10.799 41.8191
3.00327 10.6622 38.8916
2.7605 10.4162 40.3978
2.91256 10.5323 38.403
2.76714 10.5046 39.5332
2.77086 9.67518 38.3624
2.86126 11.0152 40.0211
2.82035 10.487 39.8597
2.84331 10.5804 41.0921
2.93982 10.6564 39.8834
2.82757 10.2588 38.5531
2.75986 10.1316 38.5284
2.76841 10.0707 37.8201
2.71388 10.3921 40.1213
2.8388 10.4189 38.9187
2.73925 9.90209 37.5849
2.66487 10.286 39.1304
2.73848 10.0979 38.3721
2.74504 10.4005 40.7426
2.89512 10.6743 39.5552
2.77571 10.2205 40.56
2.86946 10.4337 38.6148
2.75473 10.591 39.9771
2.79765 10.5289 40.5205
2.84335 10.7057 39.7068
2.7165 9.7029 39.2927
2.79214 10.4944 39.5994
2.78003 10.3789 39.2613
2.76505 10.5034 39.8259
2.77353 10.3104 38.6299
2.70345 10.6909 42.5506
2.92769 10.328 40.0419
2.84373 11.0584 40.3151
2.75936 10.0631 40.4028
2.8376 10.4263 38.9961
2.70839 9.97481 37.4304
2.61618 9.94276 38.5441
2.69247 9.88109 38.3239
2.69844 10.5242 40.0359
2.72647 10.1294 39.2079
2.74005 10.2874 40.2933
2.76706 10.0161 37.4147
2.61431 10.6937 41.3825
2.80567 10.0475 39.6858
2.76243 10.1292 38.1976
2.64742 9.97382 38.2726
2.64364 9.88877 38.7148
2.6662 10.1521 40.258
2.76439 10.2648 40.3803
2.78117 10.6361 39.0596
2.6677 10.1765 39.7582
2.74511 10.4653 39.8424
2.71513 10.2473 38.6209
2.64688 10.5545 39.9029
2.69094 9.95353 39.9643
2.73295 10.1129 38.5076
2.64197 9.96991 40.0226
2.74356 10.2969 37.8623
2.554 9.97169 39.6457
2.69503 10.2117 38.8764
2.64423 9.89111 38.5117
2.63179 10.2934 40.3916
2.74386 9.8814 41.1344
2.83676 11.0171 39.6613
2.61578 9.65766 39.702
2.71084 10.2164 38.085
2.56144 9.70078 39.0071
2.64784 9.77147 37.1943
2.54294 9.60777 36.5743
2.4959 9.7557 38.0917
2.57392 9.89422 38.7331
2.63066 9.56925 38.6904
2.64748 9.90889 38.5855
2.62573 10.0042 38.8228
2.65206 9.98826 37.4899
2.55089 10.2499 40.2819
2.70126 9.73381 37.1837
2.52972 10.3511 39.4498
2.62298 9.86007 38.7407
2.60278 9.72602 37.7167
2.56191 10.0594 40.3745
2.68808 9.68489 39.2094
2.63905 10.4778 39.3444
2.63044 9.79166 38.4815
2.58687 10.1407 39.7961
2.64194 9.74826 37.4563
2.50261 9.78998 39.0979
2.61943 10.1539 40.7537
2.71895 10.244 39.0367
2.57658 9.70327 38.9777
2.61292 10.0558 39.2214
2.63961 10.2498 39.7797
2.63532 10.1262 39.7314
2.64694 10.0848 39.4498
2.65219 9.71459 36.5277
2.4307 9.8338 39.0844
2.55481 9.37124 38.4913
2.57889 9.81023 37.1772
2.48074 9.7085 37.9578
2.52982 10.128 39.9272
2.64326 9.89817 38.8956
2.59986 10.0989 38.8297
2.57014 10.0384 39.6187
2.61632 9.77016 38.1486
2.51341 9.80656 39.6461
2.61176 9.77191 39.3003
2.58649 9.91089 39.4508
2.60073 10.0387 38.954
2.60181 9.82203 38.0432
2.5181 9.95515 39.4706
2.58433 9.97953 39.2022
2.591 9.67448 39.2478
2.60424 9.88301 39.65
2.63475 10.461 40.2741
2.63933 9.85141 38.7479
2.57744 9.83183 37.2906
2.433 9.27537 37.0566
2.47304 9.88592 39.2822
2.5754 9.39033 36.9652
2.43321 9.16632 37.485
2.46964 9.58922 39.3849
2.60165 9.90546 38.4092
2.53778 10.0865 39.1413
2.55576 9.94726 38.8058
2.52762 9.8473 40.5568
2.66933 10.0031 37.1907
2.4646 9.64502 39.1414
2.59124 9.87859 38.5974
2.52157 9.94424 39.453
2.54987 9.90524 39.0822
2.5477 9.85279 38.1818
2.48894 9.73138 39.9611
2.61179 9.70098 37.3635
2.42859 9.8553 38.784
2.52012 10.0044 41.1111
2.67686 9.78197 38.7909
2.55943 9.97553 38.3908
2.48591 9.51893 39.2017
2.57329 10.0541 40.2354
2.62449 9.76989 36.8146
2.39632 9.51797 39.8095
2.57199 9.71418 37.238
2.42425 9.72697 38.6376
2.52891 9.75994 36.7168
2.36465 9.19381 37.5343
2.46728 9.70387 38.9264
2.54638 9.8765 39.1364
2.53833 9.98511 39.9299
2.58858 9.77114 39.8954
2.5995 9.9444 38.1409
2.46958 9.55306 38.2233
2.49606 9.83562 40.1327
2.6304 10.0096 38.5587
2.51547 9.92259 38.7567
2.51994 9.59103 41.5875
2.70174 10.336 39.5084
2.56793 9.88291 39.1875
2.53792 9.78421 40.5263
2.64027 10.2062 39.3397
2.54658 9.72231 37.0553
2.38934 9.52206 39.2482
2.53069 9.97851 39.522
2.54437 9.5661 38.1208
2.48035 9.44091 38.1167
2.48885 9.80642 39.5059
2.56915 10.0195 38.2046
2.45979 10.0008 39.7949
2.56297 9.47741 39.1183
2.51889 9.8147 37.411
2.41298 9.26012 38.0713
2.44351 9.7862 38.3428
2.47268 9.86853 38.8966
2.49769 9.85347 39.7084
2.54043 9.90934 39.569
2.5796 9.78078 38.8102
2.50624 9.74075 39.5019
2.54798 9.67105 39.2659
2.53263 9.7333 38.8204
2.51578 9.81583 38.3089
2.47212 9.78901 40.1483
2.5884 10.0245 40.3226
2.59336 10.0866 40.2634
2.59172 9.66032 39.5102
2.56591 9.89365 37.4541
2.41977 9.78462 39.6749
2.54945 9.78461 39.1399
2.52463 9.40316 36.8711
2.37592 9.81287 39.2738
2.53923 10.2581 40.305
2.57896 9.70616 38.9946
2.50346 9.81769 40.2748
2.60935 10.335 38.7426
2.49273 9.88853 40.1691
2.56488 10.0196 39.7041
2.55261 9.70115 40.0444
2.5941 9.91309 39.0404
2.51739 9.497 39.7082
2.55929 9.93705 37.9651
2.4453 9.69603 38.082
2.45954 9.75764 37.8736
2.44907 9.61845 38.0713
2.47281 9.45251 38.8766
2.48305 9.99181 39.1692
2.54361 9.53062 38.6114
2.48366 9.85812 39.7434
2.5757 9.77979 39.6103
2.54451 9.45516 37.089
2.40948 9.91113 39.4822
2.53802 9.80838 40.4363
2.59493 10.3311 39.1632
2.50939 9.66492 39.5259
2.53809 9.80679 39.7653
2.54381 9.96254 39.4502
2.54749 9.69467 40.7733
2.62778 9.83066 39.105
2.50465 10.3916 41.322
2.64814 10.3283 40.302
2.60126 10.3346 41.4248
2.65438 10.1564 41.658
2.66223 0 0